##NAMES=Dufrenoysite
##RRUFFID=R070579
##IDEAL CHEMISTRY=Pb^2+^_2_As^3+^_2_S^2-^_5_
##LOCALITY=Lengenbach Quarry, Imfeld, Binnental, Valais, Switzerland
##OWNER=RRUFF
##SOURCE=James Shigley
##DESCRIPTION=Lead gray metallic prismatic crystals associated with pyrite and dolomite
##STATUS=The identification of this mineral has been confirmed by X-ray diffraction and chemical analysis
##URL=rruff.info/R070579
##MEASURED CHEMISTRY=(Pb_1.71_Tl_0.08_Sb_0.04_Ag_0.03_)_Î£1.86_As_2.05_S_5.00
144.3446, 1836.637
144.8267, 1839.500
145.3088, 1829.064
145.7909, 1811.929
146.2730, 1807.295
146.7551, 1822.415
147.2373, 1857.296
147.7194, 1878.341
148.2015, 1880.406
148.6836, 1873.286
149.1657, 1866.250
149.6478, 1857.126
150.1300, 1850.822
150.6121, 1848.813
151.0942, 1852.635
151.5763, 1856.045
152.0584, 1860.734
152.5405, 1864.859
153.0227, 1865.257
153.5048, 1858.892
153.9869, 1851.402
154.4690, 1844.667
154.9511, 1838.647
155.4332, 1833.519
155.9154, 1831.818
156.3975, 1831.782
156.8796, 1826.205
157.3617, 1800.743
157.8438, 1777.151
158.3259, 1769.316
158.8080, 1800.792
159.2902, 1826.667
159.7723, 1833.393
160.2544, 1821.037
160.7365, 1809.964
161.2186, 1807.554
161.7007, 1808.813
162.1829, 1808.478
162.6650, 1803.241
163.1471, 1797.493
163.6292, 1793.317
164.1113, 1791.229
164.5934, 1789.080
165.0756, 1780.455
165.5577, 1771.396
166.0398, 1772.736
166.5219, 1809.027
167.0040, 1845.417
167.4861, 1854.773
167.9683, 1818.565
168.4504, 1780.652
168.9325, 1769.813
169.4146, 1779.683
169.8967, 1788.027
170.3788, 1777.300
170.8610, 1760.352
171.3431, 1751.239
171.8252, 1762.326
172.3073, 1775.026
172.7894, 1770.617
173.2715, 1750.619
173.7537, 1732.962
174.2358, 1732.554
174.7179, 1743.023
175.2000, 1753.425
175.6821, 1764.039
176.1642, 1770.391
176.6464, 1763.252
177.1285, 1740.725
177.6106, 1720.305
178.0927, 1721.821
178.5748, 1739.399
179.0569, 1755.946
179.5390, 1763.476
180.0212, 1764.342
180.5033, 1761.732
180.9854, 1755.203
181.4675, 1747.417
181.9496, 1740.037
182.4317, 1733.472
182.9139, 1730.940
183.3960, 1737.951
183.8781, 1750.732
184.3602, 1759.155
184.8423, 1761.200
185.3244, 1758.318
185.8066, 1751.300
186.2887, 1740.250
186.7708, 1729.607
187.2529, 1723.766
187.7350, 1721.880
188.2171, 1720.730
188.6993, 1720.468
189.1814, 1720.047
189.6635, 1714.525
190.1456, 1702.876
190.6277, 1693.204
191.1098, 1697.384
191.5920, 1714.196
192.0741, 1728.436
192.5562, 1735.482
193.0383, 1735.532
193.5204, 1726.870
194.0025, 1706.209
194.4847, 1685.792
194.9668, 1687.789
195.4489, 1713.129
195.9310, 1736.300
196.4131, 1742.010
196.8952, 1731.222
197.3774, 1726.196
197.8595, 1730.273
198.3416, 1737.689
198.8237, 1734.836
199.3058, 1720.302
199.7879, 1704.974
200.2701, 1693.922
200.7522, 1686.864
201.2343, 1690.003
201.7164, 1708.687
202.1985, 1735.965
202.6806, 1745.524
203.1628, 1733.447
203.6449, 1717.438
204.1270, 1713.455
204.6091, 1723.990
205.0912, 1729.727
205.5733, 1725.507
206.0555, 1712.795
206.5376, 1704.095
207.0197, 1700.293
207.5018, 1698.796
207.9839, 1696.454
208.4660, 1692.484
208.9482, 1691.216
209.4303, 1695.465
209.9124, 1705.572
210.3945, 1709.137
210.8766, 1704.076
211.3587, 1695.222
211.8409, 1688.705
212.3230, 1684.229
212.8051, 1682.891
213.2872, 1686.146
213.7693, 1695.348
214.2514, 1701.217
214.7336, 1702.556
215.2157, 1701.407
215.6978, 1701.967
216.1799, 1704.825
216.6620, 1707.972
217.1441, 1710.515
217.6263, 1712.231
218.1084, 1714.286
218.5905, 1718.369
219.0726, 1722.317
219.5547, 1718.476
220.0368, 1702.275
220.5190, 1686.219
221.0011, 1676.462
221.4832, 1672.328
221.9653, 1677.322
222.4474, 1697.355
222.9295, 1727.869
223.4117, 1741.690
223.8938, 1730.597
224.3759, 1714.586
224.8580, 1708.173
225.3401, 1716.434
225.8222, 1723.024
226.3043, 1725.223
226.7865, 1723.290
227.2686, 1722.430
227.7507, 1723.161
228.2328, 1724.386
228.7149, 1725.875
229.1970, 1730.736
229.6792, 1729.396
230.1613, 1717.309
230.6434, 1693.293
231.1255, 1676.564
231.6076, 1666.811
232.0897, 1664.872
232.5719, 1674.142
233.0540, 1706.122
233.5361, 1728.768
234.0182, 1731.668
234.5003, 1709.832
234.9824, 1694.040
235.4646, 1686.825
235.9467, 1684.069
236.4288, 1679.526
236.9109, 1671.766
237.3930, 1664.679
237.8751, 1659.459
238.3573, 1656.542
238.8394, 1654.340
239.3215, 1652.719
239.8036, 1651.905
240.2857, 1652.057
240.7678, 1651.881
241.2500, 1654.565
241.7321, 1662.233
242.2142, 1679.432
242.6963, 1690.706
243.1784, 1692.814
243.6605, 1689.537
244.1427, 1692.134
244.6248, 1707.075
245.1069, 1718.711
245.5890, 1718.375
246.0711, 1697.412
246.5532, 1682.849
247.0353, 1676.653
247.5175, 1677.489
247.9996, 1680.614
248.4817, 1688.211
248.9638, 1695.247
249.4459, 1698.997
249.9280, 1699.228
250.4102, 1696.731
250.8923, 1691.282
251.3744, 1683.031
251.8565, 1672.656
252.3386, 1656.481
252.8207, 1642.819
253.3029, 1638.272
253.7850, 1648.346
254.2671, 1655.776
254.7492, 1657.904
255.2313, 1655.245
255.7134, 1653.701
256.1956, 1655.592
256.6777, 1655.700
257.1598, 1649.018
257.6419, 1631.253
258.1240, 1615.879
258.6061, 1603.399
259.0883, 1593.965
259.5704, 1594.934
260.0525, 1611.763
260.5346, 1631.960
261.0167, 1643.770
261.4988, 1645.352
261.9810, 1642.910
262.4631, 1636.025
262.9452, 1624.515
263.4273, 1617.593
263.9094, 1615.901
264.3915, 1617.961
264.8737, 1623.052
265.3558, 1632.861
265.8379, 1641.254
266.3200, 1647.580
266.8021, 1652.070
267.2842, 1648.500
267.7664, 1630.815
268.2485, 1613.045
268.7306, 1615.632
269.2127, 1648.578
269.6948, 1671.011
270.1769, 1666.339
270.6591, 1632.175
271.1412, 1617.215
271.6233, 1628.063
272.1054, 1649.185
272.5875, 1660.199
273.0696, 1658.714
273.5518, 1655.274
274.0339, 1653.225
274.5160, 1652.736
274.9981, 1650.848
275.4802, 1647.556
275.9623, 1642.857
276.4445, 1636.281
276.9266, 1627.224
277.4087, 1619.117
277.8908, 1612.478
278.3729, 1607.128
278.8550, 1607.371
279.3372, 1614.766
279.8193, 1625.202
280.3014, 1632.176
280.7835, 1635.442
281.2656, 1637.485
281.7477, 1638.782
282.2298, 1639.292
282.7119, 1641.213
283.1941, 1644.865
283.6762, 1649.265
284.1583, 1652.092
284.6404, 1653.079
285.1225, 1655.930
285.6046, 1663.334
286.0868, 1674.928
286.5689, 1686.333
287.0510, 1698.954
287.5331, 1708.000
288.0152, 1702.521
288.4973, 1682.430
288.9795, 1663.508
289.4616, 1655.687
289.9437, 1656.930
290.4258, 1653.852
290.9079, 1644.590
291.3900, 1634.345
291.8722, 1632.638
292.3543, 1638.985
292.8364, 1644.323
293.3185, 1642.291
293.8006, 1635.065
294.2827, 1630.157
294.7649, 1627.349
295.2470, 1629.013
295.7291, 1644.097
296.2112, 1670.362
296.6933, 1688.754
297.1754, 1682.829
297.6576, 1661.677
298.1397, 1648.624
298.6218, 1646.167
299.1039, 1650.671
299.5860, 1661.925
300.0681, 1677.805
300.5503, 1689.087
301.0324, 1689.718
301.5145, 1682.288
301.9966, 1669.076
302.4787, 1647.999
302.9608, 1629.578
303.4430, 1629.636
303.9251, 1643.408
304.4072, 1655.072
304.8893, 1656.051
305.3714, 1649.909
305.8535, 1639.581
306.3357, 1623.723
306.8178, 1610.497
307.2999, 1610.495
307.7820, 1619.751
308.2641, 1627.855
308.7462, 1630.392
309.2284, 1628.561
309.7105, 1622.089
310.1926, 1609.528
310.6747, 1598.352
311.1568, 1596.480
311.6389, 1600.360
312.1211, 1602.336
312.6032, 1595.978
313.0853, 1587.856
313.5674, 1582.743
314.0495, 1581.324
314.5316, 1582.668
315.0138, 1586.779
315.4959, 1593.232
315.9780, 1601.240
316.4601, 1620.151
316.9422, 1633.558
317.4243, 1627.089
317.9065, 1592.640
318.3886, 1565.103
318.8707, 1565.965
319.3528, 1582.216
319.8349, 1593.418
320.3170, 1586.761
320.7992, 1578.173
321.2813, 1575.160
321.7634, 1579.985
322.2455, 1584.560
322.7276, 1585.766
323.2097, 1585.617
323.6919, 1586.941
324.1740, 1593.242
324.6561, 1598.574
325.1382, 1601.120
325.6203, 1600.684
326.1024, 1597.745
326.5845, 1587.838
327.0667, 1576.829
327.5488, 1572.002
328.0309, 1578.031
328.5130, 1586.643
328.9951, 1598.762
329.4772, 1618.432
329.9594, 1624.817
330.4415, 1604.213
330.9236, 1575.997
331.4057, 1561.905
331.8878, 1572.830
332.3699, 1584.376
332.8521, 1592.894
333.3342, 1598.632
333.8163, 1598.742
334.2984, 1589.649
334.7805, 1577.677
335.2626, 1569.584
335.7448, 1567.573
336.2269, 1565.322
336.7090, 1560.432
337.1911, 1552.849
337.6732, 1551.977
338.1553, 1562.310
338.6375, 1573.261
339.1196, 1572.361
339.6017, 1553.547
340.0838, 1543.621
340.5659, 1551.569
341.0480, 1574.369
341.5302, 1587.003
342.0123, 1588.296
342.4944, 1582.423
342.9765, 1568.302
343.4586, 1544.167
343.9407, 1533.888
344.4229, 1547.383
344.9050, 1576.625
345.3871, 1591.791
345.8692, 1591.670
346.3513, 1586.019
346.8334, 1581.955
347.3156, 1579.283
347.7977, 1576.366
348.2798, 1572.207
348.7619, 1568.270
349.2440, 1568.524
349.7261, 1572.868
350.2083, 1576.915
350.6904, 1575.995
351.1725, 1572.060
351.6546, 1571.180
352.1367, 1575.266
352.6188, 1581.331
353.1010, 1585.590
353.5831, 1588.218
354.0652, 1590.149
354.5473, 1591.907
355.0294, 1593.391
355.5115, 1594.354
355.9937, 1594.546
356.4758, 1594.729
356.9579, 1597.295
357.4400, 1600.732
357.9221, 1600.709
358.4042, 1589.748
358.8864, 1576.965
359.3685, 1570.792
359.8506, 1573.068
360.3327, 1579.576
360.8148, 1591.648
361.2969, 1605.920
361.7791, 1616.208
362.2612, 1620.632
362.7433, 1619.860
363.2254, 1611.614
363.7075, 1592.851
364.1896, 1579.925
364.6718, 1585.395
365.1539, 1598.025
365.6360, 1602.936
366.1181, 1584.643
366.6002, 1568.777
367.0823, 1566.185
367.5645, 1579.961
368.0466, 1589.255
368.5287, 1586.600
369.0108, 1579.787
369.4929, 1576.547
369.9750, 1581.385
370.4571, 1585.513
370.9392, 1587.500
371.4214, 1587.244
371.9035, 1586.384
372.3856, 1584.648
372.8677, 1582.456
373.3498, 1580.228
373.8319, 1578.788
374.3141, 1575.599
374.7962, 1568.726
375.2783, 1559.165
375.7604, 1556.263
376.2425, 1564.374
376.7246, 1571.633
377.2068, 1568.618
377.6889, 1552.236
378.1710, 1539.526
378.6531, 1533.492
379.1352, 1531.619
379.6173, 1525.107
380.0995, 1512.174
380.5816, 1502.967
381.0637, 1507.176
381.5458, 1524.150
382.0279, 1530.588
382.5100, 1522.208
382.9922, 1507.830
383.4743, 1504.397
383.9564, 1511.225
384.4385, 1514.095
384.9206, 1500.511
385.4027, 1477.173
385.8849, 1464.112
386.3670, 1463.839
386.8491, 1466.958
387.3312, 1461.299
387.8133, 1449.960
388.2954, 1442.305
388.7776, 1447.477
389.2597, 1456.362
389.7418, 1457.556
390.2239, 1450.548
390.7060, 1441.034
391.1881, 1427.980
391.6703, 1416.141
392.1524, 1412.618
392.6345, 1428.229
393.1166, 1446.222
393.5987, 1456.791
394.0808, 1460.162
394.5630, 1459.958
395.0451, 1456.054
395.5272, 1450.193
396.0093, 1443.879
396.4914, 1434.718
396.9735, 1428.164
397.4557, 1427.143
397.9378, 1430.457
398.4199, 1432.911
398.9020, 1433.031
399.3841, 1432.387
399.8662, 1431.969
400.3484, 1435.173
400.8305, 1433.645
401.3126, 1422.367
401.7947, 1406.449
402.2768, 1397.705
402.7589, 1402.408
403.2411, 1406.743
403.7232, 1405.061
404.2053, 1394.219
404.6874, 1389.496
405.1695, 1393.577
405.6516, 1401.305
406.1338, 1404.533
406.6159, 1400.822
407.0980, 1400.216
407.5801, 1407.716
408.0622, 1422.800
408.5443, 1429.063
409.0265, 1424.618
409.5086, 1417.854
409.9907, 1418.592
410.4728, 1426.730
410.9549, 1431.967
411.4370, 1431.202
411.9192, 1426.366
412.4013, 1422.153
412.8834, 1418.592
413.3655, 1415.232
413.8476, 1411.985
414.3297, 1408.706
414.8119, 1404.494
415.2939, 1398.154
415.7761, 1392.839
416.2582, 1393.527
416.7403, 1398.699
417.2224, 1402.768
417.7045, 1398.768
418.1866, 1393.921
418.6688, 1397.350
419.1509, 1412.461
419.6330, 1425.864
420.1151, 1429.477
420.5972, 1425.593
421.0793, 1417.898
421.5615, 1401.842
422.0436, 1387.300
422.5257, 1380.109
423.0078, 1381.199
423.4899, 1382.346
423.9720, 1378.908
424.4542, 1375.663
424.9363, 1376.991
425.4184, 1386.731
425.9005, 1397.655
426.3826, 1412.778
426.8647, 1430.957
427.3469, 1435.858
427.8290, 1412.845
428.3111, 1390.357
428.7932, 1386.143
429.2753, 1414.996
429.7574, 1429.478
430.2396, 1420.468
430.7217, 1398.345
431.2038, 1391.317
431.6859, 1404.343
432.1680, 1418.577
432.6501, 1427.088
433.1323, 1429.985
433.6144, 1422.430
434.0965, 1401.094
434.5786, 1377.597
435.0607, 1369.303
435.5428, 1375.695
436.0250, 1385.381
436.5071, 1396.845
436.9892, 1408.029
437.4713, 1413.999
437.9534, 1414.789
438.4355, 1410.512
438.9177, 1394.423
439.3998, 1373.830
439.8819, 1364.713
440.3640, 1376.468
440.8461, 1394.464
441.3282, 1406.375
441.8104, 1412.884
442.2925, 1416.688
442.7746, 1420.918
443.2567, 1422.148
443.7388, 1416.115
444.2209, 1398.401
444.7031, 1383.213
445.1852, 1375.440
445.6673, 1374.169
446.1494, 1377.868
446.6315, 1394.769
447.1136, 1408.626
447.5958, 1411.193
448.0779, 1398.672
448.5600, 1393.442
449.0421, 1407.130
449.5242, 1423.217
450.0063, 1427.163
450.4885, 1409.083
450.9706, 1394.128
451.4527, 1385.802
451.9348, 1383.469
452.4169, 1382.612
452.8990, 1383.850
453.3812, 1385.381
453.8633, 1384.375
454.3454, 1379.431
454.8275, 1384.619
455.3096, 1405.260
455.7917, 1430.211
456.2739, 1435.988
456.7560, 1422.733
457.2381, 1408.855
457.7202, 1405.830
458.2023, 1409.455
458.6844, 1404.333
459.1666, 1389.077
459.6487, 1374.185
460.1308, 1368.805
460.6129, 1371.443
461.0950, 1379.055
461.5771, 1397.322
462.0592, 1414.196
462.5414, 1416.205
463.0235, 1405.343
463.5056, 1394.273
463.9877, 1389.635
464.4698, 1388.169
464.9519, 1387.095
465.4341, 1385.231
465.9162, 1384.941
466.3983, 1387.997
466.8804, 1393.190
467.3625, 1397.930
467.8446, 1403.293
468.3268, 1406.752
468.8089, 1407.138
469.2910, 1403.784
469.7731, 1399.908
470.2552, 1395.656
470.7373, 1390.741
471.2195, 1383.736
471.7016, 1369.333
472.1837, 1365.053
472.6658, 1378.883
473.1479, 1405.693
473.6300, 1414.895
474.1122, 1402.118
474.5943, 1386.570
475.0764, 1381.468
475.5585, 1386.452
476.0406, 1392.167
476.5227, 1399.089
477.0049, 1403.416
477.4870, 1395.395
477.9691, 1377.419
478.4512, 1364.165
478.9333, 1368.236
479.4154, 1379.628
479.8976, 1379.238
480.3797, 1366.437
480.8618, 1357.495
481.3439, 1372.822
481.8260, 1397.479
482.3081, 1411.310
482.7903, 1398.692
483.2724, 1384.363
483.7545, 1381.404
484.2366, 1387.528
484.7187, 1394.493
485.2008, 1402.338
485.6830, 1407.983
486.1651, 1409.301
486.6472, 1403.539
487.1293, 1399.209
487.6114, 1399.539
488.0935, 1400.897
488.5757, 1398.300
489.0578, 1387.108
489.5399, 1379.092
490.0220, 1377.068
490.5041, 1380.912
490.9862, 1387.466
491.4684, 1399.773
491.9505, 1408.115
492.4326, 1400.195
492.9147, 1374.418
493.3968, 1362.787
493.8789, 1373.295
494.3611, 1392.995
494.8432, 1394.496
495.3253, 1379.448
495.8074, 1366.326
496.2895, 1369.337
496.7716, 1379.736
497.2538, 1378.187
497.7359, 1362.930
498.2180, 1350.136
498.7001, 1358.011
499.1822, 1376.267
499.6643, 1389.600
500.1465, 1389.933
500.6286, 1387.045
501.1107, 1384.127
501.5928, 1381.914
502.0749, 1383.533
502.5570, 1397.991
503.0392, 1410.773
503.5213, 1413.605
504.0034, 1401.599
504.4855, 1388.400
504.9676, 1372.628
505.4497, 1357.088
505.9318, 1345.342
506.4139, 1334.604
506.8961, 1332.804
507.3782, 1345.944
507.8603, 1372.351
508.3424, 1383.526
508.8245, 1374.693
509.3066, 1363.271
509.7888, 1363.560
510.2709, 1375.533
510.7530, 1386.231
511.2351, 1394.644
511.7172, 1399.762
512.1993, 1397.280
512.6815, 1388.758
513.1636, 1382.705
513.6457, 1386.683
514.1278, 1394.549
514.6099, 1396.926
515.0920, 1393.572
515.5742, 1388.959
516.0563, 1387.672
516.5384, 1386.365
517.0205, 1380.959
517.5026, 1365.379
517.9847, 1351.651
518.4669, 1342.833
518.9490, 1339.428
519.4311, 1342.759
519.9132, 1365.448
520.3953, 1384.133
520.8774, 1386.772
521.3596, 1365.489
521.8417, 1356.203
522.3238, 1364.639
522.8059, 1380.448
523.2880, 1393.614
523.7701, 1404.777
524.2523, 1411.400
524.7344, 1411.932
525.2165, 1407.960
525.6986, 1405.766
526.1807, 1405.661
526.6628, 1404.382
527.1450, 1397.372
527.6271, 1387.047
528.1092, 1384.088
528.5913, 1390.358
529.0734, 1398.310
529.5555, 1402.085
530.0377, 1401.331
530.5198, 1395.288
531.0019, 1375.112
531.4840, 1356.364
531.9661, 1352.701
532.4482, 1361.960
532.9304, 1371.314
533.4125, 1377.801
533.8946, 1380.595
534.3767, 1377.946
534.8588, 1363.884
535.3409, 1356.845
535.8231, 1363.060
536.3052, 1376.812
536.7873, 1390.255
537.2694, 1408.343
537.7515, 1418.528
538.2336, 1416.138
538.7158, 1402.451
539.1979, 1391.544
539.6800, 1383.876
540.1621, 1377.463
540.6442, 1369.375
541.1263, 1359.808
541.6085, 1358.458
542.0906, 1368.304
542.5727, 1380.735
543.0548, 1382.277
543.5369, 1375.349
544.0190, 1369.419
544.5012, 1369.662
544.9833, 1372.469
545.4654, 1373.715
545.9475, 1373.508
546.4296, 1373.337
546.9117, 1372.870
547.3939, 1373.476
547.8760, 1376.547
548.3581, 1383.754
548.8402, 1390.621
549.3223, 1398.960
549.8044, 1405.745
550.2866, 1405.455
550.7687, 1387.457
551.2508, 1374.374
551.7329, 1373.654
552.2150, 1384.882
552.6971, 1386.511
553.1793, 1373.730
553.6614, 1360.433
554.1435, 1357.956
554.6256, 1367.028
555.1077, 1372.954
555.5898, 1373.420
556.0720, 1372.837
556.5541, 1381.707
557.0362, 1397.566
557.5183, 1405.614
558.0004, 1388.987
558.4825, 1365.977
558.9647, 1367.677
559.4468, 1391.250
559.9289, 1409.594
560.4110, 1398.403
560.8931, 1377.538
561.3752, 1365.135
561.8574, 1367.378
562.3395, 1372.983
562.8216, 1382.976
563.3037, 1393.123
563.7858, 1396.590
564.2679, 1382.821
564.7501, 1373.081
565.2322, 1373.956
565.7143, 1384.332
566.1964, 1386.870
566.6785, 1377.853
567.1606, 1367.830
567.6428, 1362.518
568.1249, 1361.899
568.6070, 1367.711
569.0891, 1381.944
569.5712, 1397.869
570.0533, 1405.959
570.5355, 1407.164
571.0176, 1406.248
571.4997, 1404.858
571.9818, 1402.408
572.4639, 1396.392
572.9460, 1387.725
573.4281, 1381.820
573.9102, 1388.141
574.3923, 1394.714
574.8745, 1389.332
575.3566, 1364.371
575.8387, 1347.093
576.3208, 1352.122
576.8029, 1367.168
577.2850, 1377.082
577.7672, 1375.159
578.2493, 1375.181
578.7314, 1380.282
579.2135, 1388.870
579.6956, 1394.052
580.1777, 1396.367
580.6599, 1393.820
581.1420, 1381.688
581.6241, 1360.313
582.1062, 1351.008
582.5883, 1355.421
583.0704, 1364.202
583.5526, 1366.195
584.0347, 1363.935
584.5168, 1366.051
584.9989, 1378.552
585.4810, 1390.810
585.9631, 1388.715
586.4453, 1376.934
586.9274, 1369.034
587.4095, 1375.827
587.8916, 1384.950
588.3737, 1389.356
588.8558, 1388.015
589.3380, 1386.075
589.8201, 1382.301
590.3022, 1379.742
590.7843, 1381.173
591.2664, 1392.893
591.7485, 1395.823
592.2307, 1383.515
592.7128, 1365.605
593.1949, 1364.667
593.6770, 1383.685
594.1591, 1400.561
594.6412, 1407.787
595.1234, 1406.484
595.6055, 1398.035
596.0876, 1382.414
596.5697, 1368.440
597.0518, 1363.298
597.5339, 1364.102
598.0161, 1366.921
598.4982, 1371.875
598.9803, 1375.888
599.4624, 1376.664
599.9445, 1375.228
600.4266, 1373.078
600.9088, 1368.403
601.3909, 1365.433
601.8730, 1366.461
602.3551, 1370.853
602.8372, 1373.528
603.3193, 1372.135
603.8015, 1371.875
604.2836, 1376.534
604.7657, 1387.967
605.2478, 1389.929
605.7299, 1380.077
606.2120, 1366.393
606.6942, 1354.928
607.1763, 1346.247
607.6584, 1346.349
608.1405, 1360.369
608.6226, 1376.750
609.1047, 1376.538
609.5869, 1364.537
610.0690, 1356.326
610.5511, 1364.188
611.0332, 1376.058
611.5153, 1383.774
611.9974, 1387.016
612.4796, 1386.533
612.9617, 1377.651
613.4438, 1368.553
613.9259, 1365.038
