##NAMES=Anapaite
##RRUFFID=R141081
##IDEAL CHEMISTRY=Ca_2_Fe^2+^(PO_4_)_2_&#183;4H_2_O
##LOCALITY=Messel mine, Messel, Darmstadt, Hesse, Germany
##OWNER=RRUFF
##SOURCE=Rock Currier
##DESCRIPTION=Pale green to colorless subparallel aggregates. Associated with messelite (R140175) and pyrite
##STATUS=The identification of this mineral is confirmed by single-crystal X-ray diffraction and chemical analysis.
##URL=rruff.info/R141081
##MEASURED CHEMISTRY=(Ca_1.95_Mg_0.05_)(Fe_0.99_Mg_0.02_)(P_1.00_O_4_)_2_Â·4H_2_O ; The grey portion is anapaite and the bright portion is pyrite.
9.059570e+001, 6.911193e+002
9.107782e+001, 6.525721e+002
9.155994e+001, 6.388985e+002
9.204205e+001, 6.665644e+002
9.252417e+001, 7.080313e+002
9.300629e+001, 7.546348e+002
9.348840e+001, 7.990365e+002
9.397052e+001, 8.350160e+002
9.445264e+001, 8.587448e+002
9.493475e+001, 8.806572e+002
9.541687e+001, 9.009511e+002
9.589898e+001, 9.184130e+002
9.638110e+001, 9.360596e+002
9.686321e+001, 9.559282e+002
9.734533e+001, 9.780740e+002
9.782745e+001, 1.000985e+003
9.830956e+001, 1.030188e+003
9.879168e+001, 1.062599e+003
9.927380e+001, 1.102910e+003
9.975591e+001, 1.161323e+003
1.002380e+002, 1.230211e+003
1.007201e+002, 1.289681e+003
1.012023e+002, 1.333038e+003
1.016844e+002, 1.353984e+003
1.021665e+002, 1.347043e+003
1.026486e+002, 1.294504e+003
1.031307e+002, 1.226421e+003
1.036128e+002, 1.167000e+003
1.040950e+002, 1.115237e+003
1.045771e+002, 1.074268e+003
1.050592e+002, 1.048828e+003
1.055413e+002, 1.034313e+003
1.060234e+002, 1.026173e+003
1.065055e+002, 1.023214e+003
1.069877e+002, 1.025059e+003
1.074698e+002, 1.030219e+003
1.079519e+002, 1.037990e+003
1.084340e+002, 1.050625e+003
1.089161e+002, 1.068571e+003
1.093982e+002, 1.091542e+003
1.098804e+002, 1.119104e+003
1.103625e+002, 1.154550e+003
1.108446e+002, 1.202881e+003
1.113267e+002, 1.231216e+003
1.118088e+002, 1.236857e+003
1.122909e+002, 1.227310e+003
1.127731e+002, 1.199351e+003
1.132552e+002, 1.155777e+003
1.137373e+002, 1.106791e+003
1.142194e+002, 1.067189e+003
1.147015e+002, 1.039945e+003
1.151836e+002, 1.018336e+003
1.156658e+002, 1.004315e+003
1.161479e+002, 9.945824e+002
1.166300e+002, 9.862112e+002
1.171121e+002, 9.781630e+002
1.175942e+002, 9.706990e+002
1.180763e+002, 9.646432e+002
1.185584e+002, 9.598911e+002
1.190406e+002, 9.561808e+002
1.195227e+002, 9.538394e+002
1.200048e+002, 9.525533e+002
1.204869e+002, 9.514680e+002
1.209690e+002, 9.502534e+002
1.214511e+002, 9.489991e+002
1.219333e+002, 9.478549e+002
1.224154e+002, 9.467870e+002
1.228975e+002, 9.458647e+002
1.233796e+002, 9.452675e+002
1.238617e+002, 9.450447e+002
1.243438e+002, 9.446617e+002
1.248260e+002, 9.436428e+002
1.253081e+002, 9.423992e+002
1.257902e+002, 9.411903e+002
1.262723e+002, 9.399602e+002
1.267544e+002, 9.390055e+002
1.272365e+002, 9.392006e+002
1.277187e+002, 9.416290e+002
1.282008e+002, 9.433828e+002
1.286829e+002, 9.431549e+002
1.291650e+002, 9.419346e+002
1.296471e+002, 9.411211e+002
1.301292e+002, 9.417408e+002
1.306114e+002, 9.436269e+002
1.310935e+002, 9.442599e+002
1.315756e+002, 9.416371e+002
1.320577e+002, 9.396379e+002
1.325398e+002, 9.398782e+002
1.330219e+002, 9.416672e+002
1.335041e+002, 9.431188e+002
1.339862e+002, 9.424453e+002
1.344683e+002, 9.390826e+002
1.349504e+002, 9.373875e+002
1.354325e+002, 9.380676e+002
1.359146e+002, 9.394753e+002
1.363968e+002, 9.408073e+002
1.368789e+002, 9.419333e+002
1.373610e+002, 9.430449e+002
1.378431e+002, 9.443995e+002
1.383252e+002, 9.461074e+002
1.388073e+002, 9.474072e+002
1.392895e+002, 9.475901e+002
1.397716e+002, 9.476019e+002
1.402537e+002, 9.488187e+002
1.407358e+002, 9.517727e+002
1.412179e+002, 9.550049e+002
1.417000e+002, 9.558961e+002
1.421821e+002, 9.546129e+002
1.426643e+002, 9.547885e+002
1.431464e+002, 9.584593e+002
1.436285e+002, 9.649164e+002
1.441106e+002, 9.713751e+002
1.445927e+002, 9.760311e+002
1.450748e+002, 9.821711e+002
1.455570e+002, 9.909218e+002
1.460391e+002, 1.002383e+003
1.465212e+002, 1.019173e+003
1.470033e+002, 1.042434e+003
1.474854e+002, 1.071897e+003
1.479675e+002, 1.111120e+003
1.484497e+002, 1.165449e+003
1.489318e+002, 1.227976e+003
1.494139e+002, 1.305854e+003
1.498960e+002, 1.397985e+003
1.503781e+002, 1.481396e+003
1.508602e+002, 1.520071e+003
1.513424e+002, 1.500514e+003
1.518245e+002, 1.461512e+003
1.523066e+002, 1.388856e+003
1.527887e+002, 1.312595e+003
1.532708e+002, 1.253693e+003
1.537529e+002, 1.220652e+003
1.542351e+002, 1.210087e+003
1.547172e+002, 1.214409e+003
1.551993e+002, 1.251173e+003
1.556814e+002, 1.283121e+003
1.561635e+002, 1.317022e+003
1.566456e+002, 1.342871e+003
1.571278e+002, 1.347391e+003
1.576099e+002, 1.323471e+003
1.580920e+002, 1.276184e+003
1.585741e+002, 1.225709e+003
1.590562e+002, 1.162913e+003
1.595383e+002, 1.107319e+003
1.600205e+002, 1.064173e+003
1.605026e+002, 1.031951e+003
1.609847e+002, 1.007510e+003
1.614668e+002, 9.901564e+002
1.619489e+002, 9.791863e+002
1.624310e+002, 9.699535e+002
1.629131e+002, 9.623217e+002
1.633953e+002, 9.563375e+002
1.638774e+002, 9.525518e+002
1.643595e+002, 9.508060e+002
1.648416e+002, 9.495901e+002
1.653237e+002, 9.476750e+002
1.658058e+002, 9.458214e+002
1.662880e+002, 9.455990e+002
1.667701e+002, 9.473604e+002
1.672522e+002, 9.506805e+002
1.677343e+002, 9.548400e+002
1.682164e+002, 9.595798e+002
1.686985e+002, 9.663728e+002
1.691807e+002, 9.755143e+002
1.696628e+002, 9.872531e+002
1.701449e+002, 1.003246e+003
1.706270e+002, 1.027097e+003
1.711091e+002, 1.053774e+003
1.715912e+002, 1.072449e+003
1.720734e+002, 1.084145e+003
1.725555e+002, 1.084352e+003
1.730376e+002, 1.068370e+003
1.735197e+002, 1.042710e+003
1.740018e+002, 1.015836e+003
1.744839e+002, 9.917445e+002
1.749661e+002, 9.706788e+002
1.754482e+002, 9.546312e+002
1.759303e+002, 9.467900e+002
1.764124e+002, 9.410416e+002
1.768945e+002, 9.359747e+002
1.773766e+002, 9.317320e+002
1.778588e+002, 9.289057e+002
1.783409e+002, 9.280081e+002
1.788230e+002, 9.290537e+002
1.793051e+002, 9.303726e+002
1.797872e+002, 9.316028e+002
1.802693e+002, 9.334466e+002
1.807515e+002, 9.359943e+002
1.812336e+002, 9.393292e+002
1.817157e+002, 9.434705e+002
1.821978e+002, 9.483491e+002
1.826799e+002, 9.538478e+002
1.831620e+002, 9.616115e+002
1.836441e+002, 9.717770e+002
1.841263e+002, 9.834541e+002
1.846084e+002, 9.976696e+002
1.850905e+002, 1.013612e+003
1.855726e+002, 1.028476e+003
1.860547e+002, 1.040200e+003
1.865368e+002, 1.048514e+003
1.870190e+002, 1.049975e+003
1.875011e+002, 1.041719e+003
1.879832e+002, 1.029054e+003
1.884653e+002, 1.014183e+003
1.889474e+002, 9.976815e+002
1.894296e+002, 9.822802e+002
1.899117e+002, 9.706917e+002
1.903938e+002, 9.630325e+002
1.908759e+002, 9.572526e+002
1.913580e+002, 9.533482e+002
1.918401e+002, 9.511855e+002
1.923223e+002, 9.509117e+002
1.928044e+002, 9.527362e+002
1.932865e+002, 9.554572e+002
1.937686e+002, 9.574727e+002
1.942507e+002, 9.592550e+002
1.947328e+002, 9.628918e+002
1.952150e+002, 9.689684e+002
1.956971e+002, 9.773438e+002
1.961792e+002, 9.877047e+002
1.966613e+002, 9.999074e+002
1.971434e+002, 1.014564e+003
1.976255e+002, 1.030557e+003
1.981077e+002, 1.048776e+003
1.985898e+002, 1.072066e+003
1.990719e+002, 1.101882e+003
1.995540e+002, 1.138088e+003
2.000361e+002, 1.180523e+003
2.005182e+002, 1.233796e+003
2.010004e+002, 1.287327e+003
2.014825e+002, 1.340827e+003
2.019646e+002, 1.390785e+003
2.024467e+002, 1.428462e+003
2.029288e+002, 1.449547e+003
2.034109e+002, 1.453999e+003
2.038930e+002, 1.438339e+003
2.043752e+002, 1.387600e+003
2.048573e+002, 1.330268e+003
2.053394e+002, 1.272720e+003
2.058215e+002, 1.217343e+003
2.063036e+002, 1.166703e+003
2.067857e+002, 1.122993e+003
2.072679e+002, 1.086243e+003
2.077500e+002, 1.055930e+003
2.082321e+002, 1.034595e+003
2.087142e+002, 1.017849e+003
2.091963e+002, 1.005342e+003
2.096784e+002, 9.966102e+002
2.101606e+002, 9.911015e+002
2.106427e+002, 9.885291e+002
2.111248e+002, 9.891140e+002
2.116069e+002, 9.908681e+002
2.120890e+002, 9.930526e+002
2.125711e+002, 9.969044e+002
2.130533e+002, 1.002712e+003
2.135354e+002, 1.010610e+003
2.140175e+002, 1.020726e+003
2.144996e+002, 1.033067e+003
2.149817e+002, 1.047500e+003
2.154638e+002, 1.066030e+003
2.159460e+002, 1.087453e+003
2.164281e+002, 1.112928e+003
2.169102e+002, 1.142706e+003
2.173923e+002, 1.176934e+003
2.178744e+002, 1.216558e+003
2.183565e+002, 1.262566e+003
2.188387e+002, 1.315728e+003
2.193208e+002, 1.371118e+003
2.198029e+002, 1.434462e+003
2.202850e+002, 1.495440e+003
2.207671e+002, 1.552434e+003
2.212492e+002, 1.603438e+003
2.217314e+002, 1.640517e+003
2.222135e+002, 1.656997e+003
2.226956e+002, 1.650001e+003
2.231777e+002, 1.627834e+003
2.236598e+002, 1.583185e+003
2.241419e+002, 1.529049e+003
2.246240e+002, 1.471925e+003
2.251062e+002, 1.412733e+003
2.255883e+002, 1.356266e+003
2.260704e+002, 1.305637e+003
2.265525e+002, 1.261705e+003
2.270346e+002, 1.224265e+003
2.275167e+002, 1.193684e+003
2.279989e+002, 1.169502e+003
2.284810e+002, 1.152831e+003
2.289631e+002, 1.143853e+003
2.294452e+002, 1.138529e+003
2.299273e+002, 1.135535e+003
2.304094e+002, 1.134118e+003
2.308916e+002, 1.132141e+003
2.313737e+002, 1.130357e+003
2.318558e+002, 1.127258e+003
2.323379e+002, 1.121342e+003
2.328200e+002, 1.112622e+003
2.333021e+002, 1.100997e+003
2.337843e+002, 1.084044e+003
2.342664e+002, 1.064411e+003
2.347485e+002, 1.045961e+003
2.352306e+002, 1.029593e+003
2.357127e+002, 1.014882e+003
2.361948e+002, 1.001199e+003
2.366770e+002, 9.884563e+002
2.371591e+002, 9.768242e+002
2.376412e+002, 9.664114e+002
2.381233e+002, 9.571066e+002
2.386054e+002, 9.489130e+002
2.390875e+002, 9.418809e+002
2.395697e+002, 9.358914e+002
2.400518e+002, 9.306853e+002
2.405339e+002, 9.260427e+002
2.410160e+002, 9.228982e+002
2.414981e+002, 9.226545e+002
2.419802e+002, 9.235692e+002
2.424624e+002, 9.238604e+002
2.429445e+002, 9.226899e+002
2.434266e+002, 9.213914e+002
2.439087e+002, 9.225759e+002
2.443908e+002, 9.273359e+002
2.448729e+002, 9.315953e+002
2.453550e+002, 9.344895e+002
2.458372e+002, 9.363201e+002
2.463193e+002, 9.373632e+002
2.468014e+002, 9.377294e+002
2.472835e+002, 9.370910e+002
2.477656e+002, 9.347794e+002
2.482477e+002, 9.303870e+002
2.487299e+002, 9.251674e+002
2.492120e+002, 9.185421e+002
2.496941e+002, 9.117800e+002
2.501762e+002, 9.059106e+002
2.506583e+002, 9.012300e+002
2.511404e+002, 8.972440e+002
2.516226e+002, 8.930516e+002
2.521047e+002, 8.883859e+002
2.525868e+002, 8.842068e+002
2.530689e+002, 8.803265e+002
2.535510e+002, 8.770424e+002
2.540331e+002, 8.747516e+002
2.545153e+002, 8.734881e+002
2.549974e+002, 8.726914e+002
2.554795e+002, 8.714436e+002
2.559616e+002, 8.692794e+002
2.564437e+002, 8.677159e+002
2.569258e+002, 8.664990e+002
2.574080e+002, 8.659515e+002
2.578901e+002, 8.665629e+002
2.583722e+002, 8.682840e+002
2.588543e+002, 8.703754e+002
2.593364e+002, 8.717659e+002
2.598185e+002, 8.718489e+002
2.603007e+002, 8.728058e+002
2.607828e+002, 8.746970e+002
2.612649e+002, 8.772109e+002
2.617470e+002, 8.803051e+002
2.622291e+002, 8.838972e+002
2.627112e+002, 8.876870e+002
2.631934e+002, 8.912511e+002
2.636755e+002, 8.941547e+002
2.641576e+002, 8.985701e+002
2.646397e+002, 9.061778e+002
2.651218e+002, 9.135753e+002
2.656039e+002, 9.190553e+002
2.660861e+002, 9.224686e+002
2.665682e+002, 9.245126e+002
2.670503e+002, 9.258939e+002
2.675324e+002, 9.267503e+002
2.680145e+002, 9.256840e+002
2.684966e+002, 9.219771e+002
2.689788e+002, 9.174482e+002
2.694609e+002, 9.127253e+002
2.699430e+002, 9.079437e+002
2.704251e+002, 9.030593e+002
2.709072e+002, 8.979091e+002
2.713893e+002, 8.924761e+002
2.718715e+002, 8.884359e+002
2.723536e+002, 8.863594e+002
2.728357e+002, 8.847858e+002
2.733178e+002, 8.827346e+002
2.737999e+002, 8.806165e+002
2.742820e+002, 8.797150e+002
2.747642e+002, 8.810234e+002
2.752463e+002, 8.843476e+002
2.757284e+002, 8.873057e+002
2.762105e+002, 8.896473e+002
2.766926e+002, 8.919930e+002
2.771747e+002, 8.942092e+002
2.776568e+002, 8.965882e+002
2.781389e+002, 8.996766e+002
2.786211e+002, 9.037472e+002
2.791032e+002, 9.087766e+002
2.795853e+002, 9.148652e+002
2.800674e+002, 9.212656e+002
2.805495e+002, 9.293189e+002
2.810316e+002, 9.392949e+002
2.815138e+002, 9.511617e+002
2.819959e+002, 9.648821e+002
2.824780e+002, 9.804207e+002
2.829601e+002, 9.978326e+002
2.834422e+002, 1.017128e+003
2.839243e+002, 1.038352e+003
2.844065e+002, 1.061045e+003
2.848886e+002, 1.086908e+003
2.853707e+002, 1.113740e+003
2.858528e+002, 1.138953e+003
2.863349e+002, 1.161972e+003
2.868170e+002, 1.181700e+003
2.872992e+002, 1.196390e+003
2.877813e+002, 1.206675e+003
2.882634e+002, 1.210598e+003
2.887455e+002, 1.206520e+003
2.892276e+002, 1.196318e+003
2.897097e+002, 1.181476e+003
2.901919e+002, 1.162229e+003
2.906740e+002, 1.140342e+003
2.911561e+002, 1.116988e+003
2.916382e+002, 1.091894e+003
2.921203e+002, 1.068272e+003
2.926024e+002, 1.045909e+003
2.930846e+002, 1.025454e+003
2.935667e+002, 1.007692e+003
2.940488e+002, 9.926375e+002
2.945309e+002, 9.796315e+002
2.950130e+002, 9.679885e+002
2.954951e+002, 9.579287e+002
2.959773e+002, 9.503624e+002
2.964594e+002, 9.467756e+002
2.969415e+002, 9.446458e+002
2.974236e+002, 9.421074e+002
2.979057e+002, 9.391199e+002
2.983878e+002, 9.363719e+002
2.988700e+002, 9.340917e+002
2.993521e+002, 9.325570e+002
2.998342e+002, 9.325496e+002
3.003163e+002, 9.363345e+002
3.007984e+002, 9.395583e+002
3.012805e+002, 9.395550e+002
3.017627e+002, 9.367168e+002
3.022448e+002, 9.329745e+002
3.027269e+002, 9.293110e+002
3.032090e+002, 9.253605e+002
3.036911e+002, 9.200981e+002
3.041732e+002, 9.128506e+002
3.046554e+002, 9.055188e+002
3.051375e+002, 8.984664e+002
3.056196e+002, 8.919409e+002
3.061017e+002, 8.867178e+002
3.065838e+002, 8.833064e+002
3.070659e+002, 8.809614e+002
3.075481e+002, 8.783444e+002
3.080302e+002, 8.754374e+002
3.085123e+002, 8.724523e+002
3.089944e+002, 8.691767e+002
3.094765e+002, 8.659280e+002
3.099586e+002, 8.633645e+002
3.104408e+002, 8.617277e+002
3.109229e+002, 8.605106e+002
3.114050e+002, 8.590974e+002
3.118871e+002, 8.574750e+002
3.123692e+002, 8.559052e+002
3.128513e+002, 8.538737e+002
3.133335e+002, 8.521776e+002
3.138156e+002, 8.520164e+002
3.142977e+002, 8.536071e+002
3.147798e+002, 8.556071e+002
3.152619e+002, 8.569092e+002
3.157440e+002, 8.575108e+002
3.162262e+002, 8.577944e+002
3.167083e+002, 8.577006e+002
3.171904e+002, 8.573577e+002
3.176725e+002, 8.567626e+002
3.181546e+002, 8.559432e+002
3.186367e+002, 8.551406e+002
3.191188e+002, 8.543333e+002
3.196010e+002, 8.537372e+002
3.200831e+002, 8.540342e+002
3.205652e+002, 8.554929e+002
3.210473e+002, 8.575402e+002
3.215294e+002, 8.603564e+002
3.220115e+002, 8.636237e+002
3.224937e+002, 8.661383e+002
3.229758e+002, 8.670922e+002
3.234579e+002, 8.672263e+002
3.239400e+002, 8.683266e+002
3.244221e+002, 8.702874e+002
3.249042e+002, 8.731553e+002
3.253864e+002, 8.773007e+002
3.258685e+002, 8.823192e+002
3.263506e+002, 8.874678e+002
3.268327e+002, 8.925019e+002
3.273148e+002, 8.976855e+002
3.277969e+002, 9.033942e+002
3.282791e+002, 9.095173e+002
3.287612e+002, 9.164703e+002
3.292433e+002, 9.246858e+002
3.297254e+002, 9.335931e+002
3.302075e+002, 9.424581e+002
3.306896e+002, 9.511545e+002
3.311718e+002, 9.602183e+002
3.316539e+002, 9.704620e+002
3.321360e+002, 9.819861e+002
3.326181e+002, 9.927106e+002
3.331002e+002, 1.002599e+003
3.335823e+002, 1.011577e+003
3.340645e+002, 1.019848e+003
3.345466e+002, 1.027264e+003
3.350287e+002, 1.033435e+003
3.355108e+002, 1.038396e+003
3.359929e+002, 1.041701e+003
3.364750e+002, 1.041213e+003
3.369572e+002, 1.035733e+003
3.374393e+002, 1.028242e+003
3.379214e+002, 1.019122e+003
3.384035e+002, 1.008895e+003
3.388856e+002, 9.988906e+002
3.393677e+002, 9.898073e+002
3.398499e+002, 9.811449e+002
3.403320e+002, 9.714607e+002
3.408141e+002, 9.597215e+002
3.412962e+002, 9.489911e+002
3.417783e+002, 9.399479e+002
3.422604e+002, 9.321829e+002
3.427426e+002, 9.251279e+002
3.432247e+002, 9.186444e+002
3.437068e+002, 9.132176e+002
3.441889e+002, 9.097025e+002
3.446710e+002, 9.090231e+002
3.451531e+002, 9.077639e+002
3.456353e+002, 9.043665e+002
3.461174e+002, 9.014727e+002
3.465995e+002, 9.014474e+002
3.470816e+002, 9.042719e+002
3.475637e+002, 9.081459e+002
3.480458e+002, 9.116455e+002
3.485280e+002, 9.147901e+002
3.490101e+002, 9.167594e+002
3.494922e+002, 9.159440e+002
3.499743e+002, 9.157725e+002
3.504564e+002, 9.182252e+002
3.509385e+002, 9.224877e+002
3.514207e+002, 9.267420e+002
3.519028e+002, 9.300146e+002
3.523849e+002, 9.322451e+002
3.528670e+002, 9.331069e+002
3.533491e+002, 9.329215e+002
3.538312e+002, 9.309951e+002
3.543134e+002, 9.263634e+002
3.547955e+002, 9.202929e+002
3.552776e+002, 9.142380e+002
3.557597e+002, 9.087029e+002
3.562418e+002, 9.031470e+002
3.567239e+002, 8.965812e+002
3.572061e+002, 8.884807e+002
3.576882e+002, 8.803401e+002
3.581703e+002, 8.713229e+002
3.586524e+002, 8.628641e+002
3.591345e+002, 8.562722e+002
3.596166e+002, 8.514241e+002
3.600987e+002, 8.470834e+002
3.605808e+002, 8.419238e+002
3.610630e+002, 8.357285e+002
3.615451e+002, 8.308218e+002
3.620272e+002, 8.278663e+002
3.625093e+002, 8.254171e+002
3.629914e+002, 8.232202e+002
3.634735e+002, 8.211544e+002
3.639557e+002, 8.191244e+002
3.644378e+002, 8.170568e+002
3.649199e+002, 8.150102e+002
3.654020e+002, 8.132408e+002
3.658841e+002, 8.119828e+002
3.663662e+002, 8.107072e+002
3.668484e+002, 8.096761e+002
3.673305e+002, 8.084493e+002
3.678126e+002, 8.062664e+002
3.682947e+002, 8.029910e+002
3.687768e+002, 7.996805e+002
3.692589e+002, 7.981729e+002
3.697411e+002, 7.994115e+002
3.702232e+002, 7.999016e+002
3.707053e+002, 7.993643e+002
3.711874e+002, 7.982437e+002
3.716695e+002, 7.962655e+002
3.721516e+002, 7.937601e+002
3.726338e+002, 7.917069e+002
3.731159e+002, 7.910808e+002
3.735980e+002, 7.918363e+002
3.740801e+002, 7.925438e+002
3.745622e+002, 7.935937e+002
3.750443e+002, 7.940508e+002
3.755265e+002, 7.935041e+002
3.760086e+002, 7.922348e+002
3.764907e+002, 7.905909e+002
3.769728e+002, 7.886306e+002
3.774549e+002, 7.866326e+002
3.779370e+002, 7.852460e+002
3.784192e+002, 7.846378e+002
3.789013e+002, 7.841808e+002
3.793834e+002, 7.836902e+002
3.798655e+002, 7.832900e+002
3.803476e+002, 7.831735e+002
3.808297e+002, 7.833730e+002
3.813119e+002, 7.835328e+002
3.817940e+002, 7.831686e+002
3.822761e+002, 7.822977e+002
3.827582e+002, 7.817922e+002
3.832403e+002, 7.820856e+002
3.837224e+002, 7.823909e+002
3.842046e+002, 7.822476e+002
3.846867e+002, 7.816915e+002
3.851688e+002, 7.808634e+002
3.856509e+002, 7.794219e+002
3.861330e+002, 7.778361e+002
3.866151e+002, 7.773732e+002
3.870973e+002, 7.783734e+002
3.875794e+002, 7.792601e+002
3.880615e+002, 7.788859e+002
3.885436e+002, 7.778904e+002
3.890257e+002, 7.771786e+002
3.895078e+002, 7.770530e+002
3.899900e+002, 7.769886e+002
3.904721e+002, 7.764966e+002
3.909542e+002, 7.756207e+002
3.914363e+002, 7.747006e+002
3.919184e+002, 7.737299e+002
3.924005e+002, 7.729152e+002
3.928827e+002, 7.725914e+002
3.933648e+002, 7.727879e+002
3.938469e+002, 7.729720e+002
3.943290e+002, 7.727660e+002
3.948111e+002, 7.724795e+002
3.952932e+002, 7.727490e+002
3.957754e+002, 7.737294e+002
3.962575e+002, 7.746293e+002
3.967396e+002, 7.746701e+002
3.972217e+002, 7.739235e+002
3.977038e+002, 7.734240e+002
3.981859e+002, 7.732497e+002
3.986681e+002, 7.733046e+002
3.991501e+002, 7.736124e+002
3.996323e+002, 7.741143e+002
4.001144e+002, 7.746943e+002
4.005965e+002, 7.753874e+002
4.010786e+002, 7.759675e+002
4.015607e+002, 7.756603e+002
4.020428e+002, 7.736895e+002
