##NAMES=Beusite
##RRUFFID=R160031
##IDEAL CHEMISTRY=Mn^2+^Mn^2+^_2_(PO_4_)_2_
##LOCALITY=Santa Ana Pegmatite, Argentina
##OWNER=RRUFF
##SOURCE=Jaroslav Hyr≈°l
##DESCRIPTION=Orange massive
##STATUS=The identification of this mineral has been confirmed only by single crystal X-ray diffraction.
##URL=rruff.info/R160031
91.35754, 1408.688
91.83966, 1404.211
92.32178, 1374.125
92.80389, 1343.642
93.28601, 1315.575
93.76813, 1290.936
94.25024, 1269.608
94.73236, 1250.901
95.21448, 1236.361
95.69659, 1218.823
96.17871, 1202.035
96.66083, 1186.473
97.14294, 1171.471
97.62506, 1156.136
98.10718, 1140.339
98.58929, 1126.072
99.07141, 1115.038
99.55353, 1103.104
100.0356, 1087.682
100.5178, 1069.324
100.9999, 1051.110
101.4820, 1035.820
101.9641, 1023.942
102.4462, 1010.962
102.9283, 995.5061
103.4105, 979.2998
103.8926, 963.8232
104.3747, 949.2924
104.8568, 935.7421
105.3389, 923.7614
105.8210, 912.9813
106.3032, 902.0865
106.7853, 891.9228
107.2674, 881.6861
107.7495, 866.9928
108.2316, 843.5506
108.7137, 818.5687
109.1959, 796.4539
109.6780, 777.5114
110.1601, 761.1596
110.6422, 747.1462
111.1243, 735.9451
111.6064, 725.4216
112.0886, 715.4943
112.5707, 705.9417
113.0528, 696.7109
113.5349, 687.7518
114.0170, 679.1545
114.4991, 671.2175
114.9813, 664.7047
115.4634, 657.9162
115.9455, 650.4410
116.4276, 642.7452
116.9097, 635.4775
117.3918, 629.0011
117.8740, 623.1865
118.3561, 617.0696
118.8382, 609.4903
119.3203, 602.8597
119.8024, 598.2151
120.2845, 595.2596
120.7667, 592.9534
121.2488, 590.6425
121.7309, 588.4164
122.2130, 586.5743
122.6951, 586.1945
123.1772, 585.5424
123.6594, 582.8061
124.1415, 577.6552
124.6236, 572.0482
125.1057, 567.1009
125.5878, 562.7271
126.0699, 559.0251
126.5521, 556.5088
127.0342, 554.7147
127.5163, 552.1949
127.9984, 548.7156
128.4805, 544.7646
128.9626, 540.8438
129.4448, 536.7624
129.9269, 532.0984
130.4090, 526.5276
130.8911, 520.0511
131.3732, 512.7792
131.8553, 503.3811
132.3375, 494.2423
132.8196, 486.1929
133.3017, 479.3115
133.7838, 473.2854
134.2659, 467.8095
134.7480, 463.1283
135.2302, 458.4298
135.7123, 453.5915
136.1944, 448.8477
136.6765, 444.1813
137.1586, 439.6346
137.6407, 435.5714
138.1229, 432.6321
138.6050, 431.8570
139.0871, 430.4098
139.5692, 428.0469
140.0513, 424.9552
140.5334, 421.1872
141.0156, 416.5817
141.4977, 411.7204
141.9798, 407.7968
142.4619, 404.6754
142.9440, 402.3276
143.4261, 400.9150
143.9083, 400.3188
144.3904, 400.0929
144.8725, 400.2296
145.3546, 400.5384
145.8367, 400.7439
146.3188, 400.8646
146.8010, 400.8184
147.2831, 400.7146
147.7652, 400.6415
148.2473, 399.7855
148.7294, 397.0830
149.2115, 393.7407
149.6937, 390.5974
150.1758, 387.8848
150.6579, 385.5301
151.1400, 383.5494
151.6221, 382.5895
152.1042, 380.6361
152.5864, 376.7216
153.0685, 371.9528
153.5506, 367.4959
154.0327, 363.9297
154.5148, 361.0583
154.9969, 357.9690
155.4791, 354.7897
155.9612, 351.2005
156.4433, 346.7744
156.9254, 341.9608
157.4075, 337.4532
157.8896, 333.7182
158.3718, 330.7189
158.8539, 327.7309
159.3360, 324.6592
159.8181, 321.6840
160.3002, 318.7205
160.7823, 315.8876
161.2645, 313.5077
161.7466, 311.9478
162.2287, 311.2164
162.7108, 309.8341
163.1929, 307.3243
163.6750, 304.6200
164.1572, 302.2561
164.6393, 300.2739
165.1214, 298.4576
165.6035, 296.6497
166.0856, 294.8584
166.5677, 293.1589
167.0499, 291.5133
167.5320, 289.9827
168.0141, 288.6984
168.4962, 287.7094
168.9783, 286.7746
169.4604, 285.5620
169.9426, 284.2254
170.4247, 283.1606
170.9068, 282.8601
171.3889, 282.9472
171.8710, 282.2750
172.3531, 280.2492
172.8353, 278.3800
173.3174, 277.6817
173.7995, 277.8134
174.2816, 277.9839
174.7637, 277.6507
175.2458, 276.8452
175.7280, 276.1130
176.2101, 275.2864
176.6922, 274.7357
177.1743, 274.8497
177.6564, 275.4074
178.1385, 275.8198
178.6207, 275.4968
179.1028, 274.3205
179.5849, 273.3354
180.0670, 272.7101
180.5491, 272.1302
181.0313, 271.3778
181.5134, 270.5130
181.9955, 269.8139
182.4776, 269.6191
182.9597, 270.1546
183.4418, 270.3750
183.9240, 270.1506
184.4061, 269.7899
184.8882, 269.4244
185.3703, 269.0909
185.8524, 268.8174
186.3345, 268.6920
186.8167, 268.9539
187.2988, 268.5041
187.7809, 266.8338
188.2630, 264.8053
188.7451, 262.9936
189.2272, 261.5264
189.7094, 260.4756
190.1915, 260.0609
190.6736, 260.4752
191.1557, 260.5616
191.6378, 260.0415
192.1199, 259.1921
192.6021, 258.2881
193.0842, 257.3650
193.5663, 256.5212
194.0484, 256.0674
194.5305, 255.9807
195.0126, 255.5719
195.4948, 254.3875
195.9769, 252.7601
196.4590, 251.3748
196.9411, 250.4348
197.4232, 249.6297
197.9053, 248.6986
198.3875, 247.6508
198.8696, 246.4559
199.3517, 244.8168
199.8338, 242.9350
200.3159, 241.7733
200.7980, 241.9959
201.2802, 242.3318
201.7623, 241.8481
202.2444, 240.6309
202.7265, 239.2105
203.2086, 237.9309
203.6907, 236.7945
204.1729, 235.7014
204.6550, 234.6806
205.1371, 233.6841
205.6192, 232.6868
206.1013, 231.6896
206.5834, 230.7087
207.0656, 229.6978
207.5477, 228.6056
208.0298, 227.8352
208.5119, 227.7122
208.9940, 227.6623
209.4761, 227.5908
209.9583, 227.4152
210.4404, 226.9796
210.9225, 226.0343
211.4046, 224.3739
211.8867, 223.0816
212.3689, 222.4354
212.8510, 221.8804
213.3331, 221.1613
213.8152, 220.2674
214.2973, 219.3436
214.7794, 218.5640
215.2616, 217.9900
215.7437, 217.3326
216.2258, 216.4735
216.7079, 215.6477
217.1900, 215.0138
217.6721, 214.5684
218.1543, 214.1654
218.6364, 213.6378
219.1185, 212.9266
219.6006, 212.3310
220.0827, 211.9156
220.5648, 211.5542
221.0470, 211.1422
221.5291, 210.6796
222.0112, 210.2813
222.4933, 210.1219
222.9754, 210.3111
223.4575, 210.0704
223.9397, 208.6263
224.4218, 207.2699
224.9039, 207.3294
225.3860, 208.8950
225.8681, 210.5517
226.3502, 210.8182
226.8324, 209.5834
227.3145, 208.6261
227.7966, 208.2822
228.2787, 208.1217
228.7608, 207.6691
229.2429, 206.8579
229.7251, 206.1142
230.2072, 205.9336
230.6893, 206.2078
231.1714, 206.2692
231.6535, 205.7313
232.1356, 205.0672
232.6178, 204.9626
233.0999, 205.5571
233.5820, 206.0582
234.0641, 205.6530
234.5462, 204.6713
235.0283, 203.8423
235.5105, 203.3949
235.9926, 203.1819
236.4747, 203.0184
236.9568, 202.9156
237.4389, 202.8197
237.9210, 202.6993
238.4032, 202.5635
238.8853, 202.4321
239.3674, 202.3798
239.8495, 202.2926
240.3316, 201.9102
240.8137, 201.1018
241.2959, 200.3956
241.7780, 200.2138
242.2601, 200.2334
242.7422, 200.0433
243.2243, 199.4153
243.7064, 198.5973
244.1886, 198.0961
244.6707, 198.0837
245.1528, 197.9492
245.6349, 197.3442
246.1170, 196.5649
246.5991, 195.9411
247.0813, 195.6358
247.5634, 195.4256
248.0455, 194.8044
248.5276, 193.4991
249.0097, 192.4314
249.4918, 192.1222
249.9740, 191.9869
250.4561, 191.4468
250.9382, 190.2751
251.4203, 188.8150
251.9024, 187.7478
252.3845, 187.2984
252.8667, 186.7552
253.3488, 185.8291
253.8309, 184.8743
254.3130, 184.2649
254.7951, 184.1010
255.2772, 184.0438
255.7594, 183.4594
256.2415, 182.0013
256.7236, 180.7202
257.2057, 179.8448
257.6878, 179.0441
258.1699, 178.0561
258.6520, 176.8273
259.1342, 175.5015
259.6163, 174.3051
260.0984, 173.2211
260.5805, 172.3189
261.0626, 171.7364
261.5447, 171.1992
262.0269, 170.6484
262.5090, 170.0139
262.9911, 169.0910
263.4732, 167.5446
263.9553, 164.9574
264.4374, 162.8891
264.9196, 161.4714
265.4017, 160.3514
265.8838, 159.3829
266.3659, 158.5131
266.8480, 157.7346
267.3301, 157.0737
267.8123, 156.6585
268.2944, 155.7814
268.7765, 154.0061
269.2586, 152.2483
269.7407, 150.9970
270.2228, 150.2355
270.7050, 149.6533
271.1871, 148.9901
271.6692, 148.2501
272.1513, 147.3664
272.6334, 145.9835
273.1155, 144.8141
273.5977, 144.2802
274.0798, 144.2638
274.5619, 144.3489
275.0440, 144.2309
275.5261, 143.9131
276.0082, 143.6273
276.4904, 143.5119
276.9725, 143.2825
277.4546, 142.6933
277.9367, 141.8984
278.4188, 141.2766
278.9009, 141.0837
279.3831, 141.2418
279.8652, 141.2499
280.3473, 141.0632
280.8294, 140.8144
281.3115, 140.4780
281.7936, 140.1104
282.2758, 139.8196
282.7579, 139.6641
283.2400, 139.6029
283.7221, 139.5164
284.2042, 139.5180
284.6863, 139.3420
285.1685, 138.8369
285.6506, 138.1437
286.1327, 137.4166
286.6148, 136.6904
287.0969, 136.0792
287.5790, 135.8572
288.0612, 136.1693
288.5433, 136.4600
289.0254, 136.7528
289.5075, 136.9399
289.9896, 136.8104
290.4717, 136.2957
290.9539, 135.6995
291.4360, 135.4835
291.9181, 135.7779
292.4002, 135.8168
292.8823, 135.2582
293.3644, 134.5560
293.8466, 134.1687
294.3287, 134.1671
294.8108, 134.3494
295.2929, 134.5721
295.7750, 134.8384
296.2571, 134.9160
296.7393, 134.6521
297.2214, 134.2971
297.7035, 134.0110
298.1856, 133.8115
298.6677, 133.7345
299.1498, 133.8756
299.6320, 134.1876
300.1141, 134.2231
300.5962, 133.6432
301.0783, 133.0936
301.5604, 133.0076
302.0425, 133.3169
302.5247, 133.7138
303.0068, 134.1109
303.4889, 134.4051
303.9710, 134.2734
304.4531, 133.3695
304.9352, 132.5537
305.4174, 132.2686
305.8995, 132.3731
306.3816, 132.4961
306.8637, 132.4858
307.3458, 132.4195
307.8279, 132.4816
308.3101, 132.7291
308.7922, 132.9086
309.2743, 132.8825
309.7564, 132.7460
310.2385, 132.6783
310.7206, 132.7397
311.2028, 132.8288
311.6849, 132.7794
312.1670, 132.5749
312.6491, 132.4305
313.1312, 132.4474
313.6133, 132.5179
314.0955, 132.5835
314.5776, 132.6431
315.0597, 132.4704
315.5418, 131.6255
316.0239, 130.1487
316.5060, 129.4134
316.9882, 130.0709
317.4703, 131.1287
317.9524, 131.8887
318.4345, 132.3015
318.9166, 132.3793
319.3987, 131.9925
319.8809, 131.2633
320.3630, 130.9087
320.8451, 131.2181
321.3272, 131.6148
321.8093, 131.7833
322.2914, 131.7742
322.7736, 131.7770
323.2557, 131.8887
323.7378, 132.0639
324.2199, 132.1673
324.7020, 132.1129
325.1841, 132.1617
325.6663, 132.5578
326.1484, 133.1020
326.6305, 133.3994
327.1126, 133.3095
327.5947, 132.9905
328.0768, 132.6379
328.5590, 132.2093
329.0411, 131.9445
329.5232, 131.8767
330.0053, 131.9993
330.4874, 132.4080
330.9695, 133.1207
331.4517, 133.7921
331.9338, 134.0539
332.4159, 133.8578
332.8980, 133.6290
333.3801, 133.2045
333.8622, 132.8803
334.3444, 132.9941
334.8265, 133.4910
335.3086, 133.8903
335.7907, 133.7956
336.2729, 133.3042
336.7550, 133.2029
337.2371, 133.8053
337.7192, 134.4201
338.2013, 134.8719
338.6834, 135.1147
339.1656, 134.9657
339.6477, 134.2561
340.1298, 133.2911
340.6119, 132.9655
341.0940, 133.6670
341.5761, 134.2076
342.0583, 134.3006
342.5404, 134.1391
343.0225, 133.9477
343.5046, 133.7903
343.9867, 133.6380
344.4688, 133.4277
344.9510, 133.0687
345.4331, 132.9669
345.9152, 133.5023
346.3973, 134.0331
346.8794, 134.0009
347.3615, 133.4024
347.8437, 132.6551
348.3258, 132.1051
348.8079, 131.7679
349.2900, 131.4171
349.7721, 131.0603
350.2542, 130.6888
350.7364, 130.2703
351.2185, 129.8321
351.7006, 129.4358
352.1827, 129.1205
352.6648, 128.8645
353.1469, 128.5793
353.6291, 128.4229
354.1112, 128.0394
354.5933, 127.1556
355.0754, 126.1164
355.5575, 125.3526
356.0396, 124.9994
356.5218, 124.8283
357.0039, 124.4683
357.4860, 123.8777
357.9681, 123.1561
358.4502, 122.0764
358.9323, 121.0491
359.4145, 120.3282
359.8966, 119.9422
360.3787, 119.8094
360.8608, 119.9025
361.3429, 120.2667
361.8250, 120.2961
362.3072, 119.6665
362.7893, 119.0651
363.2714, 118.7085
363.7535, 118.5418
364.2356, 118.4348
364.7177, 118.3128
365.1999, 118.1881
365.6820, 118.1127
366.1641, 118.1420
366.6462, 118.1462
367.1283, 118.1055
367.6104, 118.0385
368.0926, 117.9071
368.5747, 117.7177
369.0568, 117.6108
369.5389, 117.8537
370.0210, 118.6563
370.5031, 119.2165
370.9853, 119.3562
371.4674, 119.4016
371.9495, 119.4268
372.4316, 119.4896
372.9137, 119.6977
373.3958, 120.1880
373.8780, 120.9408
374.3601, 121.5513
374.8422, 121.9478
375.3243, 122.2830
375.8064, 122.4947
376.2885, 122.7059
376.7707, 123.1149
377.2528, 123.8447
377.7349, 124.7292
378.2170, 125.3835
378.6991, 125.6789
379.1812, 126.1251
379.6634, 126.8587
380.1455, 127.7813
380.6276, 128.8803
381.1097, 130.1402
381.5918, 131.4412
382.0739, 132.7011
382.5561, 133.9116
383.0382, 135.0047
383.5203, 135.9282
384.0024, 136.7736
384.4845, 137.4743
384.9666, 138.1316
385.4488, 139.0446
385.9309, 140.5728
386.4130, 142.3978
386.8951, 143.7700
387.3772, 144.5728
387.8593, 145.3632
388.3415, 146.5651
388.8236, 147.8799
389.3057, 148.9026
389.7878, 149.4843
390.2699, 149.9431
390.7520, 150.5761
391.2342, 151.3539
391.7163, 151.9713
392.1984, 152.1722
392.6805, 152.4209
393.1626, 153.4107
393.6447, 155.1426
394.1269, 156.7134
394.6090, 157.5835
395.0911, 158.1509
395.5732, 159.0783
396.0553, 160.4602
396.5374, 161.9082
397.0196, 163.0642
397.5017, 163.9854
397.9838, 165.0820
398.4659, 166.3679
398.9480, 167.8292
399.4301, 169.5329
399.9123, 171.4191
400.3944, 173.3083
400.8765, 175.1255
401.3586, 176.8800
401.8407, 178.5762
402.3228, 180.0645
402.8050, 181.8135
403.2871, 184.0096
403.7692, 186.4533
404.2513, 188.9593
404.7334, 191.4949
405.2155, 194.0798
405.6977, 196.7354
406.1798, 199.4843
406.6619, 202.1732
407.1440, 204.8222
407.6261, 207.4057
408.1082, 209.9159
408.5904, 212.3496
409.0725, 214.6351
409.5546, 216.7082
410.0367, 218.6919
410.5188, 220.9724
411.0009, 223.9684
411.4831, 226.7061
411.9652, 228.9872
412.4473, 231.0899
412.9294, 233.2228
413.4115, 235.4408
413.8936, 237.6929
414.3758, 239.9107
414.8579, 242.0716
415.3400, 244.3056
415.8221, 246.8589
416.3042, 249.2442
416.7863, 251.4011
417.2685, 253.2424
417.7506, 254.6855
418.2327, 255.7102
418.7148, 256.2139
419.1969, 255.7655
419.6790, 253.9288
420.1612, 252.1341
420.6433, 251.2913
421.1254, 250.2940
421.6075, 248.1427
422.0896, 244.6621
422.5717, 240.5975
423.0539, 236.6949
423.5360, 232.9210
424.0181, 228.6851
424.5002, 223.6416
424.9823, 218.5536
425.4644, 213.8544
425.9466, 209.5073
426.4287, 205.4490
426.9108, 201.8445
427.3929, 198.3779
427.8750, 194.4583
428.3571, 190.0236
428.8393, 185.9970
429.3214, 182.7985
429.8035, 180.2524
430.2856, 177.9486
430.7677, 175.8512
431.2498, 174.0503
431.7320, 172.6578
432.2141, 171.5679
432.6962, 170.5559
433.1783, 169.5649
433.6604, 168.7250
434.1425, 168.1665
434.6247, 167.9101
435.1068, 167.8574
435.5889, 168.0261
436.0710, 168.3804
436.5531, 168.9120
437.0352, 169.6120
437.5174, 170.4710
437.9995, 171.4931
438.4816, 172.6432
438.9637, 173.8349
439.4458, 174.8514
439.9279, 176.2425
440.4101, 178.3360
440.8922, 180.6195
441.3743, 182.5867
441.8564, 184.2195
442.3385, 185.9585
442.8206, 188.2804
443.3028, 191.2134
443.7849, 194.0611
444.2670, 196.6945
444.7491, 199.3871
445.2312, 202.3586
445.7133, 205.3968
446.1955, 208.2044
446.6776, 210.6470
447.1597, 212.8449
447.6418, 214.9508
448.1239, 216.8301
448.6060, 219.0241
449.0882, 222.2561
449.5703, 225.2862
450.0524, 227.3853
450.5345, 228.6087
451.0166, 229.4528
451.4987, 230.3643
451.9809, 231.1634
452.4630, 231.1081
452.9451, 229.9538
453.4272, 228.5945
453.9093, 227.5590
454.3914, 226.5117
454.8736, 225.0099
455.3557, 222.8784
455.8378, 220.6288
456.3199, 218.7354
456.8020, 217.0797
457.2841, 215.2044
457.7663, 212.9731
458.2484, 210.5766
458.7305, 208.1220
459.2126, 205.6229
459.6947, 203.3203
460.1768, 201.3405
460.6590, 199.4956
461.1411, 197.7210
461.6232, 195.9726
462.1053, 194.0291
462.5874, 191.7247
463.0695, 189.2278
463.5517, 186.9951
464.0338, 185.2132
464.5159, 183.3469
464.9980, 181.2558
465.4801, 179.0984
465.9622, 177.0318
466.4444, 175.0650
466.9265, 173.0324
467.4086, 170.7730
467.8907, 168.2813
468.3728, 165.9658
468.8549, 164.1173
469.3371, 162.1217
469.8192, 159.7108
470.3013, 157.1374
470.7834, 154.7444
471.2655, 152.6511
471.7477, 150.7318
472.2298, 148.7685
472.7119, 146.7023
473.1940, 144.8904
473.6761, 143.7012
474.1582, 142.4594
474.6404, 140.7641
475.1225, 138.7681
475.6046, 136.8866
476.0867, 135.3709
476.5688, 134.0629
477.0509, 132.6862
477.5331, 131.2321
478.0152, 129.7371
478.4973, 128.2012
478.9794, 126.6188
479.4615, 124.9136
479.9436, 123.0638
480.4258, 121.3886
480.9079, 120.1321
481.3900, 119.1137
481.8721, 118.0523
482.3542, 116.9168
482.8363, 115.7259
483.3185, 114.4464
483.8006, 113.1213
484.2827, 111.9959
484.7648, 111.2079
485.2469, 110.4463
485.7290, 109.6188
486.2112, 108.7464
486.6933, 107.8731
487.1754, 107.0081
487.6575, 106.1003
488.1396, 105.0610
488.6217, 103.8294
489.1039, 102.7630
489.5860, 101.9098
490.0681, 101.1382
490.5502, 100.4452
491.0323, 99.78683
491.5144, 99.09921
491.9966, 98.35381
492.4787, 97.57159
492.9608, 96.79385
493.4429, 96.00028
493.9250, 95.27376
494.4071, 94.74174
494.8893, 94.17488
495.3714, 93.38902
495.8535, 92.44149
496.3356, 91.57017
496.8177, 90.97871
497.2998, 90.53055
497.7820, 89.85393
498.2641, 88.89639
498.7462, 88.01579
499.2283, 87.40937
499.7104, 86.92752
500.1925, 86.36193
500.6747, 85.68753
501.1568, 85.05559
501.6389, 84.57568
502.1210, 84.17475
502.6031, 83.74983
503.0852, 83.28864
503.5674, 82.80153
504.0495, 82.30455
504.5316, 81.78902
505.0137, 81.21323
505.4958, 80.51448
505.9779, 79.83875
506.4601, 79.03487
506.9422, 78.35457
507.4243, 78.28000
507.9064, 78.87524
508.3885, 79.54954
508.8706, 79.58949
509.3528, 78.91085
509.8349, 78.24973
510.3170, 77.40688
510.7991, 76.80674
511.2812, 76.82093
511.7633, 77.07471
512.2454, 77.01185
512.7275, 76.40649
513.2097, 75.59000
513.6918, 75.05003
514.1739, 74.80889
514.6560, 74.64176
515.1381, 74.52116
515.6202, 74.48354
516.1024, 74.58656
516.5845, 74.78284
517.0666, 74.95979
517.5487, 75.17085
518.0308, 75.23896
518.5129, 74.80569
518.9951, 73.93743
519.4772, 73.31268
519.9593, 73.20983
520.4414, 73.36123
520.9235, 73.39138
521.4056, 73.29667
521.8878, 73.19657
522.3699, 73.07495
522.8520, 72.98275
523.3341, 73.01580
523.8162, 73.12684
524.2983, 73.13179
524.7805, 72.91546
525.2626, 72.57484
525.7447, 72.37995
526.2268, 72.47989
526.7089, 72.50085
527.1910, 72.32732
527.6732, 72.17341
528.1553, 72.17313
528.6374, 72.32659
529.1195, 72.58060
529.6016, 72.92503
530.0837, 73.30994
530.5659, 73.52502
531.0480, 73.47823
531.5301, 73.50244
532.0122, 73.78149
532.4943, 74.10799
532.9764, 74.26976
533.4586, 74.26722
533.9407, 74.39988
534.4228, 75.00243
534.9049, 75.82389
535.3870, 76.29725
535.8691, 76.36970
536.3513, 76.53561
536.8334, 77.09471
537.3155, 77.92159
537.7976, 78.68022
538.2797, 79.34183
538.7618, 80.01684
539.2440, 80.73507
539.7261, 81.48030
540.2082, 82.18410
540.6903, 82.86860
541.1724, 83.72375
541.6545, 84.95456
542.1367, 86.47354
542.6188, 87.57442
543.1009, 87.57471
543.5830, 88.04385
544.0651, 89.72810
544.5472, 91.55195
545.0294, 92.38286
545.5115, 92.19410
545.9936, 92.03677
546.4757, 92.96666
546.9578, 94.80108
547.4399, 96.30893
547.9221, 97.39233
548.4042, 98.36717
548.8863, 99.35809
549.3684, 100.3208
549.8505, 101.1730
550.3326, 101.8794
550.8148, 102.6650
551.2969, 103.8123
551.7790, 105.0902
552.2611, 106.0322
552.7432, 106.5831
553.2253, 107.0457
553.7075, 107.6656
554.1896, 108.3630
554.6717, 108.7022
555.1538, 108.4407
555.6359, 108.2189
556.1180, 108.3473
556.6002, 108.4581
557.0823, 108.0836
557.5644, 107.2311
558.0465, 106.3329
558.5286, 105.7591
559.0107, 105.4912
559.4929, 105.3832
559.9750, 105.6217
560.4571, 105.7202
560.9392, 105.3142
561.4213, 104.9207
561.9034, 104.9953
562.3856, 105.5967
562.8677, 106.4447
563.3498, 107.3487
563.8319, 108.3257
564.3140, 109.4849
564.7961, 110.8854
565.2783, 112.1676
