##NAMES=Beusite
##RRUFFID=R160031
##IDEAL CHEMISTRY=Mn^2+^Mn^2+^_2_(PO_4_)_2_
##LOCALITY=Santa Ana Pegmatite, Argentina
##OWNER=RRUFF
##SOURCE=Jaroslav Hyr≈°l
##DESCRIPTION=Orange massive
##STATUS=The identification of this mineral has been confirmed only by single crystal X-ray diffraction.
##URL=rruff.info/R160031
89.01367, 690.8943
89.49579, 689.6839
89.97791, 689.7144
90.46002, 690.3879
90.94214, 694.1867
91.42426, 706.3399
91.90637, 725.7476
92.38849, 742.1500
92.87061, 745.1545
93.35272, 738.9456
93.83484, 734.9013
94.31696, 736.5488
94.79907, 741.4532
95.28119, 745.2566
95.76331, 748.6623
96.24542, 750.9261
96.72754, 750.4446
97.20966, 747.2803
97.69177, 744.7169
98.17389, 743.3221
98.65601, 743.1105
99.13812, 745.7164
99.62024, 752.1981
100.1024, 759.3112
100.5845, 762.2382
101.0666, 760.3854
101.5487, 757.2236
102.0308, 753.7944
102.5129, 749.9236
102.9951, 746.8710
103.4772, 745.0472
103.9593, 743.8938
104.4414, 741.8810
104.9235, 737.7664
105.4056, 734.6368
105.8878, 733.8912
106.3699, 736.8864
106.8520, 740.0375
107.3341, 745.6855
107.8162, 752.4387
108.2983, 752.0627
108.7805, 739.4420
109.2626, 723.7711
109.7447, 710.0474
110.2268, 698.9012
110.7089, 688.9215
111.1910, 680.0809
111.6732, 672.3361
112.1553, 665.4213
112.6374, 659.3230
113.1195, 653.9942
113.6016, 649.3278
114.0837, 644.0033
114.5659, 640.5176
115.0480, 640.8779
115.5301, 645.5904
116.0122, 648.3907
116.4943, 645.4662
116.9764, 639.8071
117.4586, 635.1996
117.9407, 635.3478
118.4228, 635.3347
118.9049, 631.5544
119.3870, 622.7753
119.8691, 614.1526
120.3513, 608.5472
120.8334, 605.4037
121.3155, 603.7055
121.7976, 602.2658
122.2797, 602.2706
122.7618, 605.7555
123.2440, 614.5113
123.7261, 623.0917
124.2082, 626.0179
124.6903, 624.1483
125.1724, 620.6525
125.6545, 616.7857
126.1367, 612.7709
126.6188, 608.9909
127.1009, 605.4393
127.5830, 602.2556
128.0651, 599.7204
128.5472, 597.8073
129.0294, 596.2369
129.5115, 595.5779
129.9936, 595.3144
130.4757, 593.2845
130.9578, 588.8118
131.4399, 582.2939
131.9221, 574.5274
132.4042, 565.3542
132.8863, 555.6169
133.3684, 545.5215
133.8505, 535.0881
134.3326, 525.4046
134.8148, 516.9043
135.2969, 509.4889
135.7790, 502.7011
136.2611, 496.4424
136.7432, 490.9843
137.2253, 486.2400
137.7075, 481.9929
138.1896, 479.5424
138.6717, 479.8726
139.1538, 483.2662
139.6359, 485.5246
140.1180, 486.6994
140.6002, 486.6532
141.0823, 484.8253
141.5644, 480.2447
142.0465, 476.0710
142.5286, 473.4107
143.0107, 472.4994
143.4929, 472.4427
143.9750, 473.3227
144.4571, 475.0490
144.9392, 477.3426
145.4213, 480.2246
145.9034, 483.6961
146.3856, 487.9048
146.8677, 493.8045
147.3498, 498.7980
147.8319, 503.1120
148.3140, 506.5628
148.7961, 508.6408
149.2783, 509.1581
149.7604, 508.4237
150.2425, 506.5435
150.7246, 502.7175
151.2067, 498.7150
151.6888, 494.6558
152.1710, 490.4718
152.6531, 485.7603
153.1352, 480.1674
153.6173, 474.2435
154.0994, 468.2881
154.5815, 462.1063
155.0637, 456.1376
155.5458, 451.0674
156.0279, 446.6530
156.5100, 440.9337
156.9921, 432.1162
157.4742, 422.5747
157.9564, 414.0248
158.4385, 407.0744
158.9206, 400.9623
159.4027, 395.6237
159.8848, 391.0343
160.3669, 386.7979
160.8491, 382.5851
161.3312, 378.7645
161.8133, 375.5743
162.2954, 373.6988
162.7775, 372.0069
163.2596, 370.0077
163.7418, 367.6792
164.2239, 365.2289
164.7060, 362.5060
165.1881, 359.7686
165.6702, 357.3721
166.1523, 355.6994
166.6345, 354.1977
167.1166, 352.3985
167.5987, 350.2374
168.0808, 348.3977
168.5629, 347.3312
169.0450, 346.8752
169.5272, 346.7748
170.0093, 346.7589
170.4914, 347.1386
170.9735, 348.5793
171.4556, 351.2953
171.9377, 353.5552
172.4199, 353.3498
172.9020, 351.5977
173.3841, 350.3697
173.8662, 351.0489
174.3483, 352.6204
174.8304, 353.9095
175.3126, 354.7945
175.7947, 355.4818
176.2768, 355.9202
176.7589, 356.2650
177.2410, 356.9821
177.7231, 358.6668
178.2053, 360.8136
178.6874, 362.5604
179.1695, 363.8386
179.6516, 364.7431
180.1337, 365.1648
180.6158, 365.2277
181.0980, 365.4981
181.5801, 366.5038
182.0622, 367.9469
182.5443, 369.1538
183.0264, 370.0088
183.5085, 370.7109
183.9907, 371.5269
184.4728, 372.4454
184.9549, 373.3156
185.4370, 374.0163
185.9191, 374.5884
186.4012, 375.2804
186.8834, 376.2239
187.3655, 377.0630
187.8476, 376.9917
188.3297, 376.0318
188.8118, 375.0844
189.2939, 374.7965
189.7761, 375.0707
190.2582, 375.3358
190.7403, 375.6513
191.2224, 375.7445
191.7045, 374.7948
192.1866, 372.7553
192.6688, 370.7981
193.1509, 369.7737
193.6330, 369.6376
194.1151, 369.6784
194.5972, 369.9096
195.0793, 370.1649
195.5615, 370.1247
196.0436, 369.8087
196.5257, 369.0444
197.0078, 367.4755
197.4899, 365.0767
197.9720, 363.0190
198.4542, 361.4777
198.9363, 360.3551
199.4184, 359.5380
199.9005, 359.1209
200.3826, 358.5604
200.8647, 357.3406
201.3469, 355.3669
201.8290, 353.7557
202.3111, 352.7729
202.7932, 352.1814
203.2753, 351.2285
203.7574, 349.8493
204.2396, 348.3130
204.7217, 346.6805
205.2038, 344.8570
205.6859, 343.5569
206.1680, 343.0653
206.6501, 343.1001
207.1323, 342.4872
207.6144, 341.0057
208.0965, 339.4388
208.5786, 338.4413
209.0607, 338.2202
209.5428, 337.5944
210.0250, 336.2858
210.5071, 334.5108
210.9892, 333.1241
211.4713, 332.2443
211.9534, 331.5025
212.4355, 330.6461
212.9176, 329.6329
213.3998, 328.6300
213.8819, 327.6501
214.3640, 326.6855
214.8461, 325.7570
215.3282, 324.8298
215.8103, 323.9695
216.2925, 323.2384
216.7746, 322.7128
217.2567, 322.0801
217.7388, 321.3232
218.2209, 320.4248
218.7030, 319.3425
219.1852, 318.0039
219.6673, 316.5846
220.1494, 315.1809
220.6315, 313.7082
221.1136, 312.4750
221.5957, 311.5835
222.0779, 310.9575
222.5600, 310.1486
223.0421, 308.9510
223.5242, 307.9259
224.0063, 307.4702
224.4884, 307.8734
224.9706, 308.1513
225.4527, 308.2286
225.9348, 308.1258
226.4169, 307.9324
226.8990, 307.6516
227.3811, 307.2763
227.8633, 306.7797
228.3454, 306.0602
228.8275, 305.4562
229.3096, 304.9834
229.7917, 304.6440
230.2738, 304.4878
230.7560, 304.6570
231.2381, 304.8143
231.7202, 304.7447
232.2023, 304.2422
232.6844, 304.0181
233.1665, 304.2983
233.6487, 304.8663
234.1308, 304.8883
234.6129, 303.8797
235.0950, 303.0184
235.5771, 302.9853
236.0592, 304.4388
236.5414, 305.2229
237.0235, 305.0488
237.5056, 304.2002
237.9877, 303.5322
238.4698, 303.0621
238.9520, 302.7345
239.4341, 302.5312
239.9162, 302.4977
240.3983, 302.4645
240.8804, 302.3712
241.3625, 302.2906
241.8447, 302.4113
242.3268, 302.7527
242.8089, 303.2717
243.2910, 304.0309
243.7731, 305.3613
244.2552, 306.0653
244.7374, 305.8654
245.2195, 305.1537
245.7016, 304.7861
246.1837, 304.8695
246.6658, 305.1232
247.1479, 305.4447
247.6301, 305.8247
248.1122, 306.3348
248.5943, 307.0543
249.0764, 307.8667
249.5585, 308.6152
250.0406, 309.5452
250.5228, 309.9864
251.0049, 309.5732
251.4870, 308.0048
251.9691, 306.8983
252.4512, 306.4272
252.9333, 306.2914
253.4155, 306.0659
253.8976, 305.8824
254.3797, 305.3286
254.8618, 304.1504
255.3439, 302.1993
255.8260, 300.6681
256.3082, 299.8086
256.7903, 299.1332
257.2724, 297.9878
257.7545, 296.2680
258.2366, 294.3270
258.7188, 292.2095
259.2009, 289.9434
259.6830, 287.6182
260.1651, 285.2333
260.6472, 282.8275
261.1293, 280.4752
261.6115, 278.2780
262.0936, 275.9159
262.5757, 273.2563
263.0578, 270.2732
263.5399, 267.6511
264.0220, 265.4128
264.5042, 263.4414
264.9863, 261.6379
265.4684, 260.0886
265.9505, 258.4754
266.4326, 256.7306
266.9147, 254.8617
267.3969, 252.7817
267.8790, 250.2877
268.3611, 248.0048
268.8432, 246.6509
269.3253, 246.5116
269.8074, 245.9911
270.2896, 244.7081
270.7717, 242.8538
271.2538, 241.3266
271.7359, 240.2195
272.2180, 239.2432
272.7001, 238.1628
273.1823, 236.9184
273.6644, 235.8944
274.1465, 235.1442
274.6286, 234.6413
275.1107, 234.3253
275.5928, 234.2305
276.0750, 234.2172
276.5571, 234.2682
277.0392, 234.4043
277.5213, 234.2819
278.0034, 233.8027
278.4855, 233.1373
278.9677, 232.7158
279.4498, 232.5801
279.9319, 232.4120
280.4140, 232.0554
280.8961, 231.5113
281.3782, 230.7745
281.8604, 229.7595
282.3425, 228.7242
282.8246, 228.1196
283.3067, 227.9583
283.7888, 227.9566
284.2709, 228.1290
284.7531, 228.4227
285.2352, 228.2688
285.7173, 227.5755
286.1994, 226.7293
286.6815, 226.2531
287.1636, 226.1321
287.6458, 226.0725
288.1279, 225.9476
288.6100, 225.7913
289.0921, 225.7869
289.5742, 225.9600
290.0563, 226.1032
290.5385, 225.9484
291.0206, 225.5396
291.5027, 225.1329
291.9848, 224.8235
292.4669, 224.5683
292.9490, 224.2504
293.4312, 223.8712
293.9133, 223.5206
294.3954, 223.2897
294.8775, 223.1574
295.3596, 223.0177
295.8417, 222.7416
296.3239, 222.5619
296.8060, 223.0791
297.2881, 224.2160
297.7702, 225.1213
298.2523, 224.9214
298.7344, 224.0602
299.2166, 223.5071
299.6987, 223.5090
300.1808, 223.7588
300.6629, 223.8888
301.1450, 223.9434
301.6271, 224.1108
302.1093, 224.7038
302.5914, 225.4222
303.0735, 225.7668
303.5556, 225.5907
304.0377, 225.3388
304.5198, 225.4067
305.0020, 225.7153
305.4841, 226.0756
305.9662, 226.4566
306.4483, 226.7992
306.9304, 226.9620
307.4125, 226.8997
307.8947, 226.9678
308.3768, 227.6330
308.8589, 228.5624
309.3410, 229.2483
309.8231, 229.3102
310.3052, 229.1594
310.7874, 229.0217
311.2695, 228.9085
311.7516, 228.9025
312.2337, 229.0929
312.7158, 229.4016
313.1979, 229.7439
313.6801, 230.1627
314.1622, 230.5493
314.6443, 230.8469
315.1264, 231.0667
315.6085, 231.2747
316.0906, 231.2886
316.5728, 231.4243
317.0549, 231.9407
317.5370, 233.2130
318.0191, 234.4172
318.5012, 235.2743
318.9833, 235.8497
319.4655, 236.3299
319.9476, 236.4866
320.4297, 236.7648
320.9118, 237.4540
321.3939, 238.8911
321.8760, 240.0403
322.3582, 240.5100
322.8403, 240.5957
323.3224, 240.7939
323.8045, 240.9259
324.2866, 241.4104
324.7687, 242.5383
325.2509, 244.5891
325.7330, 246.1808
326.2151, 246.9229
326.6972, 247.2878
327.1793, 247.7877
327.6614, 248.6436
328.1436, 249.4011
328.6257, 249.8885
329.1078, 250.0928
329.5899, 250.6718
330.0720, 251.8795
330.5541, 253.2412
331.0363, 254.4058
331.5184, 255.1584
332.0005, 256.1131
332.4826, 257.5779
332.9647, 259.3310
333.4468, 260.1894
333.9290, 259.5191
334.4111, 258.9214
334.8932, 259.3150
335.3753, 261.0656
335.8574, 262.6919
336.3395, 264.1922
336.8216, 265.5039
337.3037, 266.4482
337.7859, 266.8892
338.2680, 267.3792
338.7501, 268.2049
339.2322, 269.3905
339.7143, 270.3399
340.1964, 271.0027
340.6786, 271.5006
341.1607, 271.9772
341.6428, 272.4423
342.1249, 272.7763
342.6070, 272.8665
343.0891, 272.7994
343.5713, 273.0721
344.0534, 273.7418
344.5355, 274.3431
345.0176, 274.4334
345.4997, 274.0632
345.9818, 273.5350
346.4640, 272.8618
346.9461, 272.1346
347.4282, 271.5556
347.9103, 271.1175
348.3924, 270.7005
348.8745, 270.3165
349.3567, 269.8925
349.8388, 269.2326
350.3209, 268.2804
350.8030, 267.1926
351.2851, 266.1891
351.7672, 265.2055
352.2494, 264.0468
352.7315, 262.5130
353.2136, 260.7960
353.6957, 259.0916
354.1778, 257.3899
354.6599, 255.7790
355.1421, 254.3975
355.6242, 253.1254
356.1063, 251.8037
356.5884, 250.3351
357.0705, 248.8141
357.5526, 247.2996
358.0348, 245.7791
358.5169, 244.2602
358.9990, 242.7778
359.4811, 241.2729
359.9632, 239.6509
360.4453, 237.5112
360.9275, 235.8678
361.4096, 235.5477
361.8917, 236.0317
362.3738, 236.1263
362.8559, 234.9370
363.3380, 233.6814
363.8202, 232.9377
364.3023, 232.9052
364.7844, 232.9610
365.2665, 233.1493
365.7486, 233.3187
366.2307, 233.2882
366.7129, 232.5413
367.1950, 232.1079
367.6771, 232.2903
368.1592, 233.1166
368.6413, 233.9696
369.1234, 234.9291
369.6056, 235.8616
370.0877, 236.6640
370.5698, 237.1284
371.0519, 237.8023
371.5340, 238.7260
372.0161, 239.8878
372.4983, 241.2810
372.9804, 243.0283
373.4625, 244.8049
373.9446, 246.3762
374.4267, 247.6020
374.9088, 249.2705
375.3910, 251.4503
375.8731, 253.9734
376.3552, 256.5536
376.8373, 259.2379
377.3194, 261.8442
377.8015, 264.2311
378.2837, 266.4679
378.7658, 268.8997
379.2479, 271.5658
379.7300, 274.3490
380.2121, 277.1244
380.6942, 279.8979
381.1764, 282.8513
381.6585, 286.0147
382.1406, 289.3427
382.6227, 292.6782
383.1048, 296.0502
383.5869, 299.4904
384.0691, 303.1110
384.5512, 306.7909
385.0333, 310.0362
385.5154, 312.7301
385.9975, 315.5267
386.4796, 319.2790
386.9618, 323.6788
387.4439, 327.9550
387.9260, 331.6315
388.4081, 335.0569
388.8902, 338.6813
389.3723, 342.4664
389.8545, 345.9012
390.3366, 348.2615
390.8187, 350.3253
391.3008, 352.9370
391.7829, 356.6399
392.2650, 360.5008
392.7472, 364.0937
393.2293, 367.5513
393.7114, 371.2827
394.1935, 375.7768
394.6756, 380.3120
395.1577, 384.4563
395.6399, 387.9536
396.1220, 391.7229
396.6041, 395.7816
397.0862, 400.2472
397.5683, 405.2645
398.0504, 411.4371
398.5326, 417.5229
399.0147, 423.0479
399.4968, 428.0099
399.9789, 433.8532
400.4610, 440.8694
400.9431, 448.3958
401.4253, 455.9886
401.9074, 463.4828
402.3895, 471.4298
402.8716, 480.1260
403.3537, 489.1484
403.8358, 497.6104
404.3180, 505.1945
404.8001, 512.9056
405.2822, 521.1008
405.7643, 529.7855
406.2464, 539.1268
406.7285, 549.3336
407.2107, 559.3776
407.6928, 567.9843
408.1749, 575.2080
408.6570, 581.8041
409.1391, 587.7068
409.6212, 593.3336
410.1034, 599.8901
410.5855, 607.3674
411.0676, 614.4027
411.5497, 619.7991
412.0318, 624.1125
412.5139, 628.6952
412.9961, 633.7933
413.4782, 639.0107
413.9603, 643.9084
414.4424, 648.5674
414.9245, 653.0530
415.4066, 657.6825
415.8888, 662.0030
416.3709, 665.6062
416.8530, 668.5085
417.3351, 670.8731
417.8172, 673.2590
418.2993, 674.9459
418.7815, 675.2892
419.2636, 674.1005
419.7457, 671.5264
420.2278, 667.4203
420.7099, 661.9656
421.1920, 655.7644
421.6742, 649.1014
422.1563, 641.5594
422.6384, 632.9166
423.1205, 622.9153
423.6026, 612.4673
424.0847, 601.3359
424.5669, 589.9499
425.0490, 578.7703
425.5311, 567.5831
426.0132, 556.7255
426.4953, 546.1179
426.9774, 535.8708
427.4596, 526.3240
427.9417, 517.2932
428.4238, 509.3980
428.9059, 503.0821
429.3880, 498.7545
429.8701, 493.9213
430.3523, 488.1654
430.8344, 482.4618
431.3165, 478.2139
431.7986, 475.4616
432.2807, 473.8135
432.7628, 473.1638
433.2450, 473.4889
433.7271, 474.8368
434.2092, 477.2264
434.6913, 480.1751
435.1734, 483.2086
435.6555, 486.5202
436.1377, 490.6158
436.6198, 495.6621
437.1019, 501.3949
437.5840, 507.5084
438.0661, 514.0626
438.5482, 521.2227
439.0304, 529.1650
439.5125, 537.7233
439.9946, 546.6659
440.4767, 556.0510
440.9588, 565.7928
441.4409, 575.9653
441.9231, 586.4965
442.4052, 597.3201
442.8873, 608.4755
443.3694, 619.8807
443.8515, 631.3021
444.3336, 642.9265
444.8158, 654.9308
445.2979, 667.7116
445.7800, 680.6755
446.2621, 693.8229
446.7442, 707.6708
447.2263, 720.1395
447.7085, 731.0163
448.1906, 740.7750
448.6727, 750.0775
449.1548, 759.1453
449.6369, 767.1711
450.1190, 774.1653
450.6012, 779.9931
451.0833, 784.4135
451.5654, 787.5509
452.0475, 788.8846
452.5296, 787.9377
453.0117, 784.6655
453.4939, 780.4474
453.9760, 775.1786
454.4581, 769.2215
454.9402, 763.1818
455.4223, 756.9528
455.9044, 749.3290
456.3866, 739.5644
456.8687, 728.6577
457.3508, 718.5277
457.8329, 709.0256
458.3150, 699.7353
458.7971, 690.1918
459.2793, 680.6545
459.7614, 671.5268
460.2435, 663.0372
460.7256, 654.3143
461.2077, 644.6463
461.6898, 634.5078
462.1720, 624.4509
462.6541, 614.4062
463.1362, 604.8959
463.6183, 596.3108
464.1004, 588.6300
464.5826, 580.6649
465.0647, 572.0450
465.5468, 563.0301
466.0289, 553.6991
466.5110, 543.7831
466.9931, 534.0923
467.4753, 524.6472
467.9574, 515.5175
468.4395, 506.7287
468.9216, 498.4437
469.4037, 490.0137
469.8858, 481.1523
470.3680, 471.9506
470.8501, 463.3072
471.3322, 455.2586
471.8143, 447.6387
472.2964, 440.3379
472.7785, 433.3940
473.2607, 426.0263
473.7428, 418.0963
474.2249, 409.9604
474.7070, 401.9894
475.1891, 394.2226
475.6712, 386.8776
476.1534, 380.3677
476.6355, 374.2230
477.1176, 367.5914
477.5997, 360.5480
478.0818, 353.7541
478.5639, 347.8114
479.0461, 342.2982
479.5282, 336.7581
480.0103, 331.0853
480.4924, 325.5179
480.9745, 320.1755
481.4566, 315.0353
481.9388, 310.0655
482.4209, 305.1465
482.9030, 300.4726
483.3851, 296.3490
483.8672, 292.7262
484.3493, 288.7273
484.8315, 283.8060
485.3136, 278.7933
485.7957, 274.1422
486.2778, 269.9353
486.7599, 265.8622
487.2420, 262.0770
487.7242, 258.3588
488.2063, 254.2661
488.6884, 249.5271
489.1705, 245.2270
489.6526, 241.6555
490.1347, 238.7075
490.6169, 235.7903
491.0990, 232.9021
491.5811, 229.9753
492.0632, 226.9469
492.5453, 223.8453
493.0274, 220.6887
493.5096, 217.4425
493.9917, 214.2892
494.4738, 211.3621
494.9559, 208.6570
495.4380, 206.1420
495.9201, 204.0134
496.4023, 201.8700
496.8844, 199.2990
497.3665, 196.4008
497.8486, 193.4982
498.3307, 190.7247
498.8128, 188.0485
499.2950, 185.4698
499.7771, 182.8940
500.2592, 180.6522
500.7413, 179.2022
501.2234, 177.9604
501.7055, 176.3623
502.1877, 173.9406
502.6698, 171.6270
503.1519, 169.5131
503.6340, 167.5976
504.1161, 165.8403
504.5982, 164.3393
505.0804, 162.7903
505.5625, 161.0015
506.0446, 158.9361
506.5267, 157.2527
507.0088, 156.0337
507.4909, 154.9257
507.9731, 153.4661
508.4552, 151.6911
508.9373, 150.1657
509.4194, 149.0294
509.9015, 148.1247
510.3836, 147.2851
510.8658, 146.4853
511.3479, 145.6325
511.8300, 144.5006
512.3121, 143.3736
512.7943, 142.7090
513.2764, 142.4884
513.7585, 142.1535
514.2406, 141.1640
514.7227, 139.9885
515.2048, 139.0652
515.6870, 138.4892
516.1691, 138.1524
516.6512, 138.4070
517.1333, 138.8049
517.6154, 138.6105
518.0975, 136.7827
518.5797, 135.3496
519.0618, 134.8878
519.5439, 135.3252
520.0260, 135.5293
520.5081, 135.3990
520.9902, 135.1816
521.4724, 134.9818
521.9545, 134.7686
522.4366, 134.7670
522.9187, 135.0620
523.4008, 135.3937
523.8829, 135.3307
524.3651, 134.9076
524.8472, 134.6747
525.3293, 134.7811
525.8114, 135.1660
526.2935, 135.8637
526.7756, 136.8079
527.2578, 137.6278
527.7399, 138.0378
528.2220, 138.2448
528.7041, 138.2473
529.1862, 138.0186
529.6683, 138.4924
530.1505, 141.0581
530.6326, 144.2082
531.1147, 146.4515
531.5968, 146.9215
532.0789, 147.1765
532.5610, 147.3102
533.0432, 147.5026
533.5253, 148.1342
534.0074, 149.2956
534.4895, 150.8451
534.9716, 152.8601
535.4537, 155.3163
535.9359, 157.6649
536.4180, 159.8336
536.9001, 162.0028
537.3822, 164.2395
537.8643, 166.5004
538.3464, 169.1941
538.8286, 172.3692
539.3107, 175.8789
539.7928, 179.8111
540.2749, 184.0555
540.7570, 188.0553
541.2391, 191.4946
541.7213, 194.7643
542.2034, 198.3846
542.6855, 202.2615
543.1676, 206.1391
543.6497, 209.9641
544.1318, 213.7025
544.6140, 217.2518
545.0961, 220.5848
545.5782, 224.1086
546.0603, 228.3766
546.5424, 232.7401
547.0245, 236.6134
547.5067, 239.0150
547.9888, 242.1901
548.4709, 246.7183
548.9530, 251.9893
549.4351, 257.0268
549.9172, 261.9047
550.3994, 266.4011
550.8815, 270.3089
551.3636, 273.7476
551.8457, 277.4398
552.3278, 281.4614
552.8099, 285.3776
553.2921, 288.9943
553.7742, 292.2923
554.2563, 295.1502
554.7384, 297.5797
555.2205, 299.5339
555.7026, 300.9368
556.1848, 301.8624
556.6669, 302.4191
557.1490, 302.4499
557.6311, 302.4278
558.1132, 302.6678
558.5953, 303.1377
559.0775, 303.7713
559.5596, 304.4069
560.0417, 305.3102
560.5238, 306.4555
561.0059, 307.8406
561.4880, 310.0366
561.9702, 313.8138
562.4523, 317.8312
562.9344, 321.4136
