##NAMES=Bismoclite
##RRUFFID=R100197
##IDEAL CHEMISTRY=BiOCl
##LOCALITY=El Guanaco Mine, Guanaco (Huanaco), Santa Catalina, Antofagasta Province, Antofagasta Region, Chile
##OWNER=RRUFF
##SOURCE=Bob Jenkins
##DESCRIPTION=Unconsolidated colorless fragments and tabular crystals.
##STATUS=The identification of this mineral has been confirmed by single-crystal X-ray diffraction.
##URL=rruff.info/R100197
159.4958, 137.3681
159.9779, 138.3049
160.4600, 141.6935
160.9422, 144.5672
161.4243, 145.9148
161.9064, 146.4219
162.3885, 146.4994
162.8706, 145.6187
163.3527, 145.0603
163.8349, 145.6266
164.3170, 147.0863
164.7991, 148.3336
165.2812, 148.2722
165.7633, 148.0125
166.2454, 148.5638
166.7276, 150.6424
167.2097, 153.2465
167.6918, 156.0056
168.1739, 158.8682
168.6560, 161.6131
169.1381, 164.2708
169.6203, 166.6272
170.1024, 167.3817
170.5845, 166.5622
171.0666, 165.7022
171.5487, 165.5708
172.0309, 166.1279
172.5130, 166.9787
172.9951, 167.9482
173.4772, 169.0133
173.9593, 170.1431
174.4414, 171.7898
174.9236, 173.2492
175.4057, 173.4633
175.8878, 172.4249
176.3699, 171.3696
176.8520, 171.5406
177.3341, 172.4610
177.8163, 173.0997
178.2984, 172.3146
178.7805, 171.2178
179.2626, 171.7262
179.7447, 173.9563
180.2268, 176.5410
180.7090, 177.7284
181.1911, 178.0372
181.6732, 179.0751
182.1553, 182.0113
182.6374, 186.1142
183.1195, 189.8730
183.6017, 193.3187
184.0838, 196.3198
184.5659, 198.7494
185.0480, 200.6445
185.5301, 202.2986
186.0123, 203.3279
186.4944, 204.1654
186.9765, 206.5052
187.4586, 210.7616
187.9407, 215.2547
188.4228, 217.0993
188.9050, 216.5724
189.3871, 216.7135
189.8692, 219.6476
190.3513, 224.7429
190.8334, 228.8218
191.3155, 231.5322
191.7977, 233.6783
192.2798, 236.4725
192.7619, 239.9129
193.2440, 243.5688
193.7261, 247.3038
194.2082, 251.1034
194.6904, 254.9083
195.1725, 258.6407
195.6546, 262.5301
196.1367, 266.9607
196.6188, 271.9927
197.1009, 277.0381
197.5831, 281.4989
198.0652, 285.4183
198.5473, 290.5702
199.0294, 297.6147
199.5115, 305.1396
199.9937, 310.5926
200.4758, 313.9777
200.9579, 315.0385
201.4400, 313.2513
201.9221, 308.4870
202.4042, 303.0349
202.8864, 297.6284
203.3685, 291.0168
203.8506, 279.3751
204.3327, 261.7195
204.8148, 243.5248
205.2969, 227.3752
205.7791, 213.2329
206.2612, 201.4181
206.7433, 192.2189
207.2254, 185.1305
207.7075, 178.9870
208.1896, 173.8353
208.6718, 169.4397
209.1539, 165.6638
209.6360, 162.5807
210.1181, 159.9611
210.6002, 157.9584
211.0823, 156.3234
211.5645, 154.2285
212.0466, 151.3343
212.5287, 148.7713
213.0108, 147.2360
213.4929, 146.9787
213.9750, 146.7163
214.4572, 146.3259
214.9393, 145.9095
215.4214, 145.9001
215.9035, 146.7052
216.3856, 147.0827
216.8678, 146.1271
217.3499, 143.1421
217.8320, 141.1153
218.3141, 140.5176
218.7962, 140.8723
219.2783, 140.6802
219.7605, 139.6917
220.2426, 138.6051
220.7247, 137.6981
221.2068, 136.7779
221.6889, 136.6339
222.1710, 137.5870
222.6532, 139.2722
223.1353, 140.6139
223.6174, 141.8661
224.0995, 142.3814
224.5816, 141.6486
225.0637, 138.8753
225.5459, 136.8681
226.0280, 135.8672
226.5101, 135.6473
226.9922, 135.6550
227.4743, 136.2628
227.9564, 136.5160
228.4386, 135.7809
228.9207, 133.2751
229.4028, 131.7749
229.8849, 131.8231
230.3670, 132.7738
230.8492, 132.6746
231.3313, 130.5996
231.8134, 128.8755
232.2955, 128.7431
232.7776, 131.3840
233.2597, 132.8306
233.7419, 132.5987
234.2240, 131.2913
234.7061, 130.5045
235.1882, 130.5708
235.6703, 130.6565
236.1524, 130.3467
236.6346, 129.2511
237.1167, 128.6626
237.5988, 128.6400
238.0809, 129.0924
238.5630, 129.9315
239.0451, 131.7211
239.5273, 133.0321
240.0094, 133.1086
240.4915, 131.1130
240.9736, 130.0004
241.4557, 129.5673
241.9378, 128.7979
242.4200, 130.2923
242.9021, 131.0542
243.3842, 131.1230
243.8663, 128.4226
244.3484, 129.2981
244.8306, 128.7405
245.3127, 128.1241
245.7948, 129.5029
246.2769, 127.2052
246.7590, 128.5523
247.2411, 128.4445
247.7233, 128.1683
248.2054, 128.5980
248.6875, 128.6862
249.1696, 128.0369
249.6517, 127.3107
250.1338, 127.7160
250.6160, 130.0396
251.0981, 132.0934
251.5802, 133.2125
252.0623, 133.3335
252.5444, 132.8161
253.0265, 131.2371
253.5087, 129.3717
253.9908, 128.3807
254.4729, 128.5882
254.9550, 128.9994
255.4371, 129.3803
255.9192, 129.7319
256.4014, 130.0634
256.8835, 130.5483
257.3656, 130.8401
257.8477, 130.2847
258.3298, 128.0118
258.8120, 126.8997
259.2941, 128.1202
259.7762, 131.9020
260.2583, 134.1391
260.7404, 134.4726
261.2225, 133.7298
261.7047, 132.6389
262.1868, 130.8991
262.6689, 129.6007
263.1510, 129.0744
263.6331, 129.2984
264.1152, 129.3467
264.5974, 129.1307
265.0795, 128.8745
265.5616, 128.8287
266.0437, 129.0906
266.5258, 129.2276
267.0079, 129.0803
267.4901, 128.7108
267.9722, 128.7596
268.4543, 129.4699
268.9364, 130.1214
269.4185, 129.9906
269.9006, 128.8089
270.3828, 128.0365
270.8649, 127.9628
271.3470, 128.4558
271.8291, 128.8962
272.3112, 129.2655
272.7933, 129.6362
273.2755, 130.1743
273.7576, 130.9807
274.2397, 131.1973
274.7218, 130.5093
275.2039, 129.2842
275.6860, 128.7023
276.1682, 128.8962
276.6503, 129.2146
277.1324, 129.1805
277.6145, 128.7475
278.0966, 128.6839
278.5787, 129.2158
279.0609, 129.9593
279.5430, 129.9865
280.0251, 129.1965
280.5072, 128.3344
280.9893, 127.6896
281.4715, 127.2685
281.9536, 127.4407
282.4357, 128.4547
282.9178, 129.6133
283.3999, 129.4861
283.8820, 127.9883
284.3642, 126.6880
284.8463, 126.4168
285.3284, 127.0854
285.8105, 127.7190
286.2926, 128.3325
286.7747, 128.8399
287.2569, 129.1197
287.7390, 129.1734
288.2211, 129.0757
288.7032, 128.7650
289.1853, 128.3125
289.6674, 128.0311
290.1496, 127.9274
290.6317, 127.9440
291.1138, 128.1398
291.5959, 128.4647
292.0780, 128.5384
292.5602, 128.0693
293.0423, 127.3307
293.5244, 127.0315
294.0065, 127.1852
294.4886, 127.5359
294.9707, 127.9670
295.4529, 128.4308
295.9350, 128.7426
296.4171, 128.8369
296.8992, 128.7747
297.3813, 128.6092
297.8634, 128.3518
298.3456, 128.1215
298.8277, 128.1132
299.3098, 128.1959
299.7919, 128.0382
300.2740, 127.4635
300.7561, 126.8182
301.2383, 126.6320
301.7204, 126.8147
302.2025, 126.9705
302.6846, 126.6978
303.1667, 126.2833
303.6488, 126.2246
304.1310, 126.7081
304.6131, 127.2066
305.0952, 126.9002
305.5773, 126.1394
306.0594, 125.8722
306.5415, 127.2464
307.0237, 129.0445
307.5058, 129.9430
307.9879, 129.7357
308.4700, 129.1517
308.9521, 128.4547
309.4343, 127.7899
309.9164, 127.3940
310.3985, 127.6393
310.8806, 128.0042
311.3627, 128.0047
311.8448, 127.6141
312.3270, 127.3721
312.8091, 127.6914
313.2912, 128.3121
313.7733, 128.9278
314.2554, 129.4733
314.7375, 129.9492
315.2197, 130.4187
315.7018, 130.8611
316.1839, 131.0668
316.6660, 130.7787
317.1481, 130.2985
317.6302, 129.8685
318.1124, 129.4550
318.5945, 129.2097
319.0766, 129.2581
319.5587, 129.5327
320.0408, 129.7978
320.5229, 129.8760
321.0051, 129.9967
321.4872, 130.3285
321.9693, 131.1393
322.4514, 131.6977
322.9335, 131.8142
323.4156, 131.5834
323.8978, 131.1873
324.3799, 130.4022
324.8620, 129.6790
325.3441, 129.1639
325.8262, 128.8803
326.3083, 128.7804
326.7905, 129.2075
327.2726, 129.7054
327.7547, 129.7088
328.2368, 128.2069
328.7189, 127.2466
329.2010, 127.4543
329.6832, 128.9785
330.1653, 129.9878
330.6474, 130.2149
331.1295, 130.1189
331.6116, 130.0673
332.0938, 130.1033
332.5759, 130.1214
333.0580, 130.1685
333.5401, 130.2109
334.0222, 129.9277
334.5043, 128.9155
334.9865, 128.1286
335.4686, 128.3057
335.9507, 130.1451
336.4328, 130.9722
336.9149, 130.2577
337.3970, 128.6338
337.8792, 127.8274
338.3613, 128.0206
338.8434, 128.4774
339.3255, 128.9006
339.8076, 129.2847
340.2898, 129.7586
340.7719, 130.4493
341.2540, 131.0247
341.7361, 130.7881
342.2182, 129.6198
342.7003, 128.8330
343.1825, 129.0076
343.6646, 129.9958
344.1467, 130.8834
344.6288, 131.7109
345.1109, 132.2714
345.5930, 132.3331
346.0752, 131.9158
346.5573, 131.1654
347.0394, 129.7989
347.5215, 128.3874
348.0036, 128.4856
348.4857, 130.0574
348.9679, 131.6128
349.4500, 131.9410
349.9321, 131.3814
350.4142, 130.8947
350.8963, 130.6061
351.3784, 130.4896
351.8606, 130.6531
352.3427, 131.0066
352.8248, 131.2180
353.3069, 130.6594
353.7890, 130.0170
354.2711, 130.4150
354.7533, 132.0435
355.2354, 133.7322
355.7175, 134.4648
356.1996, 134.5611
356.6817, 134.5785
357.1638, 134.9170
357.6460, 135.1437
358.1281, 134.7975
358.6102, 133.9265
359.0923, 133.1442
359.5744, 132.7088
360.0565, 132.5772
360.5387, 132.7309
361.0208, 133.4765
361.5029, 134.1179
361.9850, 134.2213
362.4671, 133.9507
362.9492, 133.8072
363.4314, 134.4492
363.9135, 134.9144
364.3956, 134.5054
364.8777, 132.4738
365.3598, 131.1432
365.8419, 131.5195
366.3241, 132.7737
366.8062, 133.6638
367.2883, 133.5916
367.7704, 133.5490
368.2526, 133.8206
368.7347, 134.4736
369.2168, 135.1015
369.6989, 135.8444
370.1810, 136.4713
370.6631, 136.7947
371.1453, 136.6782
371.6274, 136.4507
372.1095, 136.0620
372.5916, 135.5609
373.0737, 135.2715
373.5558, 135.1762
374.0380, 135.3131
374.5201, 135.7773
375.0022, 136.7429
375.4843, 137.4132
375.9664, 137.6474
376.4485, 137.6745
376.9307, 137.9450
377.4128, 138.4784
377.8949, 139.1639
378.3770, 140.0030
378.8591, 140.9806
379.3412, 141.9519
379.8234, 142.9811
380.3055, 143.7484
380.7876, 143.6522
381.2697, 142.7553
381.7518, 142.1982
382.2339, 142.3561
382.7161, 142.9842
383.1982, 143.6271
383.6803, 144.2743
384.1624, 144.7667
384.6445, 144.7350
385.1266, 144.4592
385.6088, 144.6905
386.0909, 145.6280
386.5730, 146.8142
387.0551, 147.8448
387.5372, 148.7001
388.0193, 149.3387
388.5015, 149.4663
388.9836, 149.5017
389.4657, 150.0331
389.9478, 151.1115
390.4299, 151.9852
390.9120, 151.7882
391.3942, 151.1989
391.8763, 151.0606
392.3584, 152.1893
392.8405, 153.3365
393.3226, 153.9608
393.8047, 154.0909
394.2869, 153.8560
394.7690, 152.4724
395.2511, 151.3083
395.7332, 151.3791
396.2154, 153.7671
396.6975, 155.4498
397.1796, 155.2385
397.6617, 154.0217
398.1438, 153.3295
398.6259, 154.3252
399.1081, 154.9257
399.5902, 154.3774
400.0723, 152.4587
400.5544, 150.9083
401.0365, 149.9476
401.5186, 149.1830
402.0008, 148.2539
402.4829, 146.7355
402.9650, 145.8846
403.4471, 146.1714
403.9292, 147.2263
404.4113, 147.4603
404.8935, 146.6582
405.3756, 145.5417
405.8577, 144.2776
406.3398, 142.7441
406.8219, 142.2360
407.3040, 143.1228
407.7862, 144.3607
408.2683, 144.3907
408.7504, 143.1859
409.2325, 141.7366
409.7146, 140.1401
410.1967, 138.6182
410.6789, 138.0437
411.1610, 138.4559
411.6431, 138.8286
412.1252, 137.9528
412.6073, 136.3098
413.0894, 135.3250
413.5716, 135.4239
414.0537, 135.9806
414.5358, 136.2394
415.0179, 136.3159
415.5000, 136.6003
415.9821, 137.9340
416.4643, 139.2351
416.9464, 139.1404
417.4285, 137.4629
417.9106, 135.7167
418.3927, 134.7702
418.8748, 134.3415
419.3570, 134.1128
419.8391, 134.3732
420.3212, 134.4241
420.8033, 133.6716
421.2854, 132.3497
421.7675, 131.5381
422.2497, 132.2111
422.7318, 133.0025
423.2139, 133.1130
423.6960, 131.9592
424.1781, 131.2163
424.6603, 131.0260
425.1424, 131.3663
425.6245, 132.2491
426.1066, 134.6015
426.5887, 136.2876
427.0709, 136.6462
427.5530, 135.6777
428.0351, 135.0213
428.5172, 134.7165
428.9993, 134.6584
429.4814, 134.8311
429.9636, 135.3363
430.4457, 135.6498
430.9278, 135.6489
431.4099, 135.5112
431.8920, 135.7585
432.3741, 136.4883
432.8563, 136.8480
433.3384, 136.1477
433.8205, 134.6219
434.3026, 133.9988
434.7847, 134.3560
435.2668, 134.9577
435.7490, 135.1406
436.2311, 134.9588
436.7132, 134.5143
437.1953, 133.5446
437.6774, 132.7347
438.1595, 133.3908
438.6417, 135.1546
439.1238, 136.5413
439.6059, 136.3264
440.0880, 135.4488
440.5701, 134.8664
441.0522, 134.6996
441.5344, 134.7122
442.0165, 134.9516
442.4986, 135.2207
442.9807, 135.2762
443.4628, 134.7888
443.9449, 134.3160
444.4271, 134.1341
444.9092, 134.1834
445.3913, 134.1098
445.8734, 133.4454
446.3555, 132.9286
446.8376, 132.9992
447.3198, 134.2446
447.8019, 134.9626
448.2840, 134.8246
448.7661, 134.2630
449.2482, 133.8638
449.7303, 133.6878
450.2125, 133.5845
450.6946, 133.5680
451.1767, 133.6228
451.6588, 133.5263
452.1409, 133.2709
452.6230, 132.8832
453.1052, 132.3522
453.5873, 131.6604
454.0694, 130.8872
454.5515, 129.8630
455.0337, 129.1212
455.5158, 130.0459
455.9979, 132.4946
456.4800, 134.2324
456.9621, 133.8769
457.4442, 132.2880
457.9264, 131.4428
458.4085, 131.3255
458.8906, 131.4714
459.3727, 131.5387
459.8548, 131.6168
460.3369, 131.8722
460.8191, 132.4129
461.3012, 132.9762
461.7833, 133.3973
462.2654, 133.6865
462.7475, 133.8633
463.2296, 134.2503
463.7118, 134.2718
464.1939, 133.2937
464.6760, 131.2552
465.1581, 129.7862
465.6402, 129.8066
466.1223, 130.3384
466.6045, 130.6974
467.0866, 130.4635
467.5687, 130.4557
468.0508, 130.9507
468.5329, 131.6762
469.0150, 132.0109
469.4972, 131.6510
469.9793, 131.3590
470.4614, 131.4241
470.9435, 131.8761
471.4256, 132.0612
471.9077, 131.8542
472.3899, 131.6350
472.8720, 131.8274
473.3541, 132.4906
473.8362, 132.8499
474.3183, 132.7011
474.8004, 132.3567
475.2826, 132.5441
475.7647, 133.2151
476.2468, 133.6909
476.7289, 133.4098
477.2110, 132.7282
477.6931, 132.4584
478.1753, 132.6037
478.6574, 132.8717
479.1395, 133.2879
479.6216, 133.5981
480.1037, 133.3149
480.5858, 131.8556
481.0680, 130.6375
481.5501, 130.9693
482.0322, 132.2427
482.5143, 133.1881
482.9965, 132.8918
483.4786, 132.5173
483.9607, 132.7295
484.4428, 133.6270
484.9249, 134.2102
485.4070, 134.1449
485.8892, 133.7859
486.3713, 133.3592
486.8534, 132.4484
487.3355, 132.1114
487.8176, 132.5628
488.2997, 133.5377
488.7819, 134.5768
489.2640, 135.9254
489.7461, 136.7608
490.2282, 136.6618
490.7103, 135.6961
491.1924, 135.1224
491.6746, 135.0247
492.1567, 134.9511
492.6388, 134.2920
493.1209, 133.1681
493.6030, 132.8082
494.0851, 133.5208
494.5673, 134.6163
495.0494, 135.0197
495.5315, 134.9298
496.0136, 135.0493
496.4957, 136.3529
496.9778, 137.6556
497.4600, 137.1867
497.9421, 135.1612
498.4242, 133.7073
498.9063, 135.2065
499.3884, 137.2005
499.8705, 137.2608
500.3527, 133.7588
500.8348, 131.2021
501.3169, 132.0274
501.7990, 134.5554
502.2811, 135.8292
502.7632, 136.4397
503.2454, 136.7573
503.7275, 136.7976
504.2096, 135.7303
504.6917, 136.0932
505.1738, 135.8830
505.6559, 135.6493
506.1381, 136.2135
506.6202, 135.3073
507.1023, 135.8589
507.5844, 135.8286
508.0665, 136.0646
508.5486, 135.7239
509.0308, 135.5613
509.5129, 135.9756
509.9950, 136.0705
510.4771, 135.6634
510.9592, 135.9164
511.4413, 134.9900
511.9235, 135.0985
512.4056, 135.6535
512.8877, 135.2754
513.3698, 135.5389
513.8519, 135.5580
514.3340, 134.4666
514.8162, 135.3065
515.2983, 135.3112
515.7804, 134.4583
516.2625, 135.2321
516.7446, 134.6420
517.2267, 133.9349
517.7089, 132.9695
518.1910, 132.6369
518.6731, 133.8588
519.1552, 135.0619
519.6373, 135.7633
520.1194, 135.9711
520.6016, 135.6646
521.0837, 134.4830
521.5658, 133.1926
522.0479, 132.3487
522.5300, 132.0619
523.0121, 131.8129
523.4943, 131.4914
523.9764, 131.2932
524.4585, 131.7501
524.9406, 132.8752
525.4227, 133.6762
525.9048, 133.5177
526.3870, 132.9261
526.8691, 133.5133
527.3513, 135.1862
527.8334, 136.5033
528.3155, 135.9762
528.7976, 134.6213
529.2797, 133.9463
529.7618, 134.2043
530.2440, 134.6958
530.7261, 135.3986
531.2082, 135.8919
531.6903, 135.6260
532.1724, 133.3047
532.6545, 131.3788
533.1367, 130.8696
533.6188, 131.4246
534.1009, 131.7496
534.5830, 131.3991
535.0651, 131.0367
535.5472, 130.8438
536.0294, 130.8118
536.5115, 131.0466
536.9936, 131.7382
537.4757, 132.4331
537.9578, 132.6459
538.4399, 132.2359
538.9221, 132.3729
539.4042, 133.4369
539.8863, 134.6450
540.3684, 134.2944
540.8505, 132.5388
541.3326, 131.2259
541.8148, 131.3067
542.2969, 132.1726
542.7790, 132.8282
543.2611, 133.2910
543.7432, 133.7235
544.2253, 134.6134
544.7075, 135.3291
545.1896, 135.0049
545.6717, 133.3035
546.1538, 131.8305
546.6359, 131.4473
547.1180, 131.6688
547.6002, 131.9869
548.0823, 132.3278
548.5644, 132.7054
549.0465, 133.2290
549.5286, 133.7975
550.0107, 134.0907
550.4929, 133.7976
550.9750, 133.6671
551.4571, 133.7084
551.9392, 132.9952
552.4213, 133.6455
552.9034, 134.0027
553.3856, 134.0827
553.8677, 133.0550
554.3498, 133.4576
554.8319, 133.2870
555.3140, 133.0929
555.7961, 133.6968
556.2783, 132.8302
556.7604, 133.9596
557.2425, 133.8412
557.7246, 132.5614
558.2067, 131.3538
558.6888, 131.7337
559.1710, 133.2765
559.6531, 134.5418
560.1352, 134.6958
560.6173, 134.4593
561.0994, 134.1909
561.5815, 133.9161
562.0637, 133.6773
562.5458, 133.3523
563.0279, 133.1544
563.5100, 133.2606
563.9921, 134.1331
564.4742, 134.4513
564.9564, 133.9129
565.4385, 133.0195
565.9206, 132.6212
566.4027, 132.7860
566.8848, 133.1321
567.3669, 133.6257
567.8491, 134.1827
568.3312, 134.4003
568.8133, 134.2969
569.2954, 134.4107
569.7775, 135.6266
570.2596, 137.1431
570.7418, 137.3098
571.2239, 136.0018
571.7060, 134.4036
572.1881, 132.6021
572.6702, 131.3600
573.1523, 131.7009
573.6345, 135.0482
574.1166, 137.8765
574.5987, 138.6657
575.0808, 138.1139
575.5629, 137.3820
576.0450, 136.3373
576.5272, 135.4928
577.0093, 134.9303
577.4914, 134.6461
577.9735, 134.6662
578.4556, 135.1670
578.9377, 135.6130
579.4199, 135.8464
579.9020, 135.8714
580.3841, 134.9990
580.8662, 133.0115
581.3483, 131.3081
581.8304, 131.8142
582.3126, 133.8577
582.7947, 135.0171
583.2768, 134.6720
583.7589, 133.8650
584.2411, 133.4844
584.7232, 133.4741
585.2053, 133.7237
585.6874, 134.5887
586.1696, 135.3237
586.6517, 135.4688
587.1338, 135.1172
587.6159, 134.7074
588.0980, 134.0492
588.5801, 133.6218
589.0623, 133.7852
589.5444, 134.7024
590.0265, 135.0539
590.5086, 134.5116
590.9907, 133.8249
591.4728, 133.5805
591.9550, 133.8432
592.4371, 134.2247
592.9192, 134.7972
593.4013, 135.2464
593.8834, 134.9829
594.3655, 134.1160
594.8477, 133.2914
595.3298, 132.6197
595.8119, 132.2304
596.2940, 132.3065
596.7761, 132.8198
597.2582, 133.6764
597.7404, 135.4579
598.2225, 136.2251
598.7046, 136.7941
599.1867, 137.0700
599.6688, 137.0688
600.1509, 135.9598
600.6331, 136.2812
601.1152, 136.0294
601.5973, 135.7541
602.0794, 136.2767
602.5615, 135.3289
603.0436, 135.8390
603.5258, 135.7670
604.0079, 135.9615
604.4900, 135.5792
604.9721, 135.3750
605.4542, 135.7478
605.9363, 135.8011
606.4185, 133.7250
606.9006, 132.6226
607.3827, 133.5749
607.8648, 135.1980
608.3469, 135.2697
608.8290, 134.0497
609.3112, 132.9915
609.7933, 133.0384
610.2754, 133.5133
610.7575, 133.9488
611.2396, 134.2817
611.7217, 134.5871
612.2039, 135.0408
612.6860, 135.3678
613.1681, 135.3241
613.6502, 134.3157
614.1323, 133.9876
614.6144, 134.6248
615.0966, 135.7101
615.5787, 136.5961
616.0608, 137.3010
616.5429, 137.5997
617.0250, 137.2812
617.5071, 136.7119
617.9893, 136.9296
618.4714, 137.8061
618.9535, 138.3254
619.4356, 137.7021
619.9177, 136.5713
620.3998, 135.6440
620.8820, 134.9329
621.3641, 134.4268
621.8462, 133.8965
622.3283, 133.7155
622.8104, 134.2835
623.2925, 135.8877
623.7747, 137.2597
624.2568, 138.4920
624.7389, 139.1819
625.2210, 138.9158
625.7031, 136.9813
626.1852, 135.6761
626.6674, 135.2932
627.1495, 135.4048
627.6316, 135.2743
628.1137, 134.8810
628.5958, 134.7918
629.0779, 135.3084
629.5601, 136.0661
630.0422, 136.4230
630.5243, 136.3977
631.0064, 136.0893
