##NAMES=Dondoellite
##RRUFFID=R210003
##IDEAL CHEMISTRY=Ca_2_Fe^2+^(PO_4_)_2_&#183;2H_2_O
##LOCALITY=Grizzly Bear Creek, Stoneman Camp (Area B; Area 2), Rapid Creek, Dawson mining district, Yukon, Canada
##OWNER=RRUFF
##SOURCE=Donald Doell
##DESCRIPTION=Spherical aggregates of radiating bladed straw-yellow or colorless crystals, on top of orange-brown siderite and white apatite. Type sample
##STATUS=The identification of this mineral is confirmed by single-crystal X-ray diffraction and chemical analysis.
##URL=rruff.info/R210003
##MEASURED CHEMISTRY=Ca_1.99_(Fe_0.89_Mg_0.13_Mn_0.01_)_Ʃ=1.03_(P_1.00_O_4_)_2_·2H_2_O
8.813672e+001, 3.254631e+002
8.861884e+001, 3.301604e+002
8.910095e+001, 3.346568e+002
8.958307e+001, 3.394387e+002
9.006519e+001, 3.440596e+002
9.054730e+001, 3.476829e+002
9.102942e+001, 3.506069e+002
9.151154e+001, 3.532842e+002
9.199365e+001, 3.566789e+002
9.247577e+001, 3.603603e+002
9.295789e+001, 3.629128e+002
9.344000e+001, 3.628746e+002
9.392212e+001, 3.611465e+002
9.440424e+001, 3.604479e+002
9.488635e+001, 3.613471e+002
9.536847e+001, 3.630483e+002
9.585059e+001, 3.645627e+002
9.633270e+001, 3.658675e+002
9.681482e+001, 3.667728e+002
9.729694e+001, 3.665714e+002
9.777905e+001, 3.654164e+002
9.826117e+001, 3.658320e+002
9.874329e+001, 3.681191e+002
9.922540e+001, 3.718707e+002
9.970752e+001, 3.767838e+002
1.001896e+002, 3.833242e+002
1.006718e+002, 3.889626e+002
1.011539e+002, 3.914427e+002
1.016360e+002, 3.898726e+002
1.021181e+002, 3.896350e+002
1.026002e+002, 3.920802e+002
1.030823e+002, 3.966094e+002
1.035645e+002, 3.987065e+002
1.040466e+002, 3.977941e+002
1.045287e+002, 3.954099e+002
1.050108e+002, 3.925947e+002
1.054929e+002, 3.884463e+002
1.059750e+002, 3.855757e+002
1.064572e+002, 3.846853e+002
1.069393e+002, 3.859879e+002
1.074214e+002, 3.873087e+002
1.079035e+002, 3.891334e+002
1.083856e+002, 3.908059e+002
1.088677e+002, 3.915789e+002
1.093499e+002, 3.902813e+002
1.098320e+002, 3.892928e+002
1.103141e+002, 3.889354e+002
1.107962e+002, 3.889760e+002
1.112783e+002, 3.903717e+002
1.117604e+002, 3.937376e+002
1.122426e+002, 3.983987e+002
1.127247e+002, 4.032729e+002
1.132068e+002, 4.080251e+002
1.136889e+002, 4.130973e+002
1.141710e+002, 4.187490e+002
1.146531e+002, 4.255866e+002
1.151353e+002, 4.318833e+002
1.156174e+002, 4.374545e+002
1.160995e+002, 4.422277e+002
1.165816e+002, 4.461058e+002
1.170637e+002, 4.469946e+002
1.175458e+002, 4.481151e+002
1.180280e+002, 4.518189e+002
1.185101e+002, 4.601830e+002
1.189922e+002, 4.693113e+002
1.194743e+002, 4.766447e+002
1.199564e+002, 4.827214e+002
1.204385e+002, 4.898140e+002
1.209207e+002, 4.999222e+002
1.214028e+002, 5.115392e+002
1.218849e+002, 5.229537e+002
1.223670e+002, 5.342983e+002
1.228491e+002, 5.448525e+002
1.233312e+002, 5.549821e+002
1.238134e+002, 5.645308e+002
1.242955e+002, 5.703776e+002
1.247776e+002, 5.691931e+002
1.252597e+002, 5.623809e+002
1.257418e+002, 5.528448e+002
1.262239e+002, 5.390070e+002
1.267061e+002, 5.237653e+002
1.271882e+002, 5.125438e+002
1.276703e+002, 5.054767e+002
1.281524e+002, 5.000663e+002
1.286345e+002, 4.935310e+002
1.291166e+002, 4.862778e+002
1.295988e+002, 4.800944e+002
1.300809e+002, 4.766643e+002
1.305630e+002, 4.751245e+002
1.310451e+002, 4.721659e+002
1.315272e+002, 4.672726e+002
1.320093e+002, 4.622842e+002
1.324915e+002, 4.603448e+002
1.329736e+002, 4.614507e+002
1.334557e+002, 4.625050e+002
1.339378e+002, 4.612018e+002
1.344199e+002, 4.577464e+002
1.349020e+002, 4.560439e+002
1.353842e+002, 4.566613e+002
1.358663e+002, 4.587676e+002
1.363484e+002, 4.607720e+002
1.368305e+002, 4.626690e+002
1.373126e+002, 4.643634e+002
1.377947e+002, 4.654147e+002
1.382769e+002, 4.655347e+002
1.387590e+002, 4.672197e+002
1.392411e+002, 4.715544e+002
1.397232e+002, 4.774272e+002
1.402053e+002, 4.801720e+002
1.406874e+002, 4.791293e+002
1.411696e+002, 4.763995e+002
1.416517e+002, 4.733047e+002
1.421338e+002, 4.696581e+002
1.426159e+002, 4.661368e+002
1.430980e+002, 4.626406e+002
1.435801e+002, 4.592769e+002
1.440623e+002, 4.568975e+002
1.445444e+002, 4.559472e+002
1.450265e+002, 4.555422e+002
1.455086e+002, 4.550034e+002
1.459907e+002, 4.542037e+002
1.464728e+002, 4.535006e+002
1.469550e+002, 4.530229e+002
1.474371e+002, 4.528047e+002
1.479192e+002, 4.522885e+002
1.484013e+002, 4.507558e+002
1.488834e+002, 4.493434e+002
1.493655e+002, 4.491114e+002
1.498477e+002, 4.516693e+002
1.503298e+002, 4.536812e+002
1.508119e+002, 4.542389e+002
1.512940e+002, 4.529296e+002
1.517761e+002, 4.524747e+002
1.522583e+002, 4.538152e+002
1.527404e+002, 4.557233e+002
1.532225e+002, 4.569224e+002
1.537046e+002, 4.556380e+002
1.541867e+002, 4.551733e+002
1.546688e+002, 4.567982e+002
1.551510e+002, 4.613234e+002
1.556331e+002, 4.650090e+002
1.561152e+002, 4.665872e+002
1.565973e+002, 4.671414e+002
1.570794e+002, 4.681025e+002
1.575615e+002, 4.697965e+002
1.580437e+002, 4.719544e+002
1.585258e+002, 4.743690e+002
1.590079e+002, 4.768040e+002
1.594900e+002, 4.801686e+002
1.599721e+002, 4.847737e+002
1.604542e+002, 4.904758e+002
1.609364e+002, 4.970223e+002
1.614185e+002, 5.043504e+002
1.619006e+002, 5.124705e+002
1.623827e+002, 5.214816e+002
1.628648e+002, 5.316451e+002
1.633469e+002, 5.420857e+002
1.638291e+002, 5.528763e+002
1.643112e+002, 5.636352e+002
1.647933e+002, 5.737418e+002
1.652754e+002, 5.859403e+002
1.657575e+002, 5.956819e+002
1.662396e+002, 5.991430e+002
1.667218e+002, 5.938888e+002
1.672039e+002, 5.854884e+002
1.676860e+002, 5.765101e+002
1.681681e+002, 5.670475e+002
1.686502e+002, 5.570614e+002
1.691323e+002, 5.461574e+002
1.696145e+002, 5.350004e+002
1.700966e+002, 5.241473e+002
1.705787e+002, 5.131774e+002
1.710608e+002, 5.033798e+002
1.715429e+002, 4.961895e+002
1.720250e+002, 4.912277e+002
1.725072e+002, 4.870588e+002
1.729893e+002, 4.826717e+002
1.734714e+002, 4.784213e+002
1.739535e+002, 4.747990e+002
1.744356e+002, 4.719643e+002
1.749177e+002, 4.697547e+002
1.753999e+002, 4.679106e+002
1.758820e+002, 4.664479e+002
1.763641e+002, 4.656138e+002
1.768462e+002, 4.658227e+002
1.773283e+002, 4.667423e+002
1.778104e+002, 4.677178e+002
1.782926e+002, 4.683531e+002
1.787747e+002, 4.691400e+002
1.792568e+002, 4.710230e+002
1.797389e+002, 4.739383e+002
1.802210e+002, 4.769022e+002
1.807031e+002, 4.787663e+002
1.811853e+002, 4.799561e+002
1.816674e+002, 4.815688e+002
1.821495e+002, 4.841110e+002
1.826316e+002, 4.871631e+002
1.831137e+002, 4.898541e+002
1.835958e+002, 4.921987e+002
1.840780e+002, 4.944896e+002
1.845601e+002, 4.975233e+002
1.850422e+002, 5.008964e+002
1.855243e+002, 5.030737e+002
1.860064e+002, 5.028768e+002
1.864885e+002, 5.013476e+002
1.869707e+002, 5.013630e+002
1.874528e+002, 5.030433e+002
1.879349e+002, 5.050568e+002
1.884170e+002, 5.059879e+002
1.888991e+002, 5.059607e+002
1.893812e+002, 5.058803e+002
1.898634e+002, 5.055720e+002
1.903455e+002, 5.054630e+002
1.908276e+002, 5.074086e+002
1.913097e+002, 5.116552e+002
1.917918e+002, 5.167674e+002
1.922739e+002, 5.209213e+002
1.927561e+002, 5.242043e+002
1.932382e+002, 5.283443e+002
1.937203e+002, 5.345477e+002
1.942024e+002, 5.422258e+002
1.946845e+002, 5.481700e+002
1.951666e+002, 5.521608e+002
1.956488e+002, 5.549664e+002
1.961309e+002, 5.576429e+002
1.966130e+002, 5.602750e+002
1.970951e+002, 5.616406e+002
1.975772e+002, 5.613691e+002
1.980593e+002, 5.594909e+002
1.985415e+002, 5.560019e+002
1.990236e+002, 5.505543e+002
1.995057e+002, 5.445011e+002
1.999878e+002, 5.394661e+002
2.004699e+002, 5.354683e+002
2.009520e+002, 5.324720e+002
2.014342e+002, 5.306036e+002
2.019163e+002, 5.298488e+002
2.023984e+002, 5.296725e+002
2.028805e+002, 5.300851e+002
2.033626e+002, 5.310930e+002
2.038447e+002, 5.326877e+002
2.043269e+002, 5.348602e+002
2.048090e+002, 5.377247e+002
2.052911e+002, 5.415457e+002
2.057732e+002, 5.463705e+002
2.062553e+002, 5.502347e+002
2.067374e+002, 5.523998e+002
2.072196e+002, 5.547288e+002
2.077017e+002, 5.601594e+002
2.081838e+002, 5.695327e+002
2.086659e+002, 5.790743e+002
2.091480e+002, 5.876787e+002
2.096301e+002, 5.954234e+002
2.101123e+002, 6.019312e+002
2.105944e+002, 6.071528e+002
2.110765e+002, 6.112504e+002
2.115586e+002, 6.144225e+002
2.120407e+002, 6.166295e+002
2.125228e+002, 6.179883e+002
2.130050e+002, 6.184030e+002
2.134871e+002, 6.177964e+002
2.139692e+002, 6.169723e+002
2.144513e+002, 6.158708e+002
2.149334e+002, 6.146162e+002
2.154155e+002, 6.131854e+002
2.158977e+002, 6.111335e+002
2.163798e+002, 6.100295e+002
2.168619e+002, 6.106832e+002
2.173440e+002, 6.134149e+002
2.178261e+002, 6.151189e+002
2.183082e+002, 6.150603e+002
2.187904e+002, 6.147037e+002
2.192725e+002, 6.162994e+002
2.197546e+002, 6.207953e+002
2.202367e+002, 6.251570e+002
2.207188e+002, 6.284232e+002
2.212009e+002, 6.304615e+002
2.216831e+002, 6.324728e+002
2.221652e+002, 6.340140e+002
2.226473e+002, 6.359510e+002
2.231294e+002, 6.396238e+002
2.236115e+002, 6.460651e+002
2.240936e+002, 6.522474e+002
2.245758e+002, 6.574562e+002
2.250579e+002, 6.615994e+002
2.255400e+002, 6.652651e+002
2.260221e+002, 6.686085e+002
2.265042e+002, 6.713420e+002
2.269863e+002, 6.730132e+002
2.274685e+002, 6.734377e+002
2.279506e+002, 6.731620e+002
2.284327e+002, 6.724176e+002
2.289148e+002, 6.712853e+002
2.293969e+002, 6.688912e+002
2.298790e+002, 6.650302e+002
2.303612e+002, 6.600595e+002
2.308433e+002, 6.544255e+002
2.313254e+002, 6.480757e+002
2.318075e+002, 6.410155e+002
2.322896e+002, 6.332025e+002
2.327717e+002, 6.246488e+002
2.332539e+002, 6.153255e+002
2.337360e+002, 6.043419e+002
2.342181e+002, 5.936046e+002
2.347002e+002, 5.854865e+002
2.351823e+002, 5.819786e+002
2.356644e+002, 5.776136e+002
2.361466e+002, 5.708246e+002
2.366287e+002, 5.613550e+002
2.371108e+002, 5.529965e+002
2.375929e+002, 5.455282e+002
2.380750e+002, 5.395623e+002
2.385571e+002, 5.359237e+002
2.390393e+002, 5.355313e+002
2.395214e+002, 5.358239e+002
2.400035e+002, 5.365940e+002
2.404856e+002, 5.379172e+002
2.409677e+002, 5.383317e+002
2.414498e+002, 5.371317e+002
2.419320e+002, 5.356908e+002
2.424141e+002, 5.352015e+002
2.428962e+002, 5.354403e+002
2.433783e+002, 5.370767e+002
2.438604e+002, 5.407004e+002
2.443425e+002, 5.462975e+002
2.448247e+002, 5.509725e+002
2.453068e+002, 5.547384e+002
2.457889e+002, 5.575311e+002
2.462710e+002, 5.594127e+002
2.467531e+002, 5.607343e+002
2.472352e+002, 5.603654e+002
2.477174e+002, 5.576110e+002
2.481995e+002, 5.526492e+002
2.486816e+002, 5.484552e+002
2.491637e+002, 5.456630e+002
2.496458e+002, 5.429081e+002
2.501279e+002, 5.391506e+002
2.506101e+002, 5.341099e+002
2.510922e+002, 5.286512e+002
2.515743e+002, 5.228398e+002
2.520564e+002, 5.167103e+002
2.525385e+002, 5.105153e+002
2.530206e+002, 5.035707e+002
2.535028e+002, 4.974380e+002
2.539849e+002, 4.937301e+002
2.544670e+002, 4.941397e+002
2.549491e+002, 4.926267e+002
2.554312e+002, 4.877916e+002
2.559133e+002, 4.804218e+002
2.563955e+002, 4.744962e+002
2.568776e+002, 4.703061e+002
2.573597e+002, 4.670569e+002
2.578418e+002, 4.644212e+002
2.583239e+002, 4.627913e+002
2.588061e+002, 4.605234e+002
2.592882e+002, 4.570179e+002
2.597703e+002, 4.528239e+002
2.602524e+002, 4.502892e+002
2.607345e+002, 4.503017e+002
2.612166e+002, 4.503271e+002
2.616988e+002, 4.486857e+002
2.621809e+002, 4.445013e+002
2.626630e+002, 4.417679e+002
2.631451e+002, 4.412167e+002
2.636272e+002, 4.420020e+002
2.641093e+002, 4.416650e+002
2.645915e+002, 4.395532e+002
2.650736e+002, 4.378141e+002
2.655557e+002, 4.377551e+002
2.660378e+002, 4.400624e+002
2.665199e+002, 4.411867e+002
2.670020e+002, 4.406740e+002
2.674842e+002, 4.392696e+002
2.679663e+002, 4.384686e+002
2.684484e+002, 4.383006e+002
2.689305e+002, 4.386355e+002
2.694126e+002, 4.395080e+002
2.698947e+002, 4.410264e+002
2.703769e+002, 4.425309e+002
2.708590e+002, 4.441252e+002
2.713411e+002, 4.455676e+002
2.718232e+002, 4.460357e+002
2.723053e+002, 4.449605e+002
2.727874e+002, 4.450968e+002
2.732696e+002, 4.481042e+002
2.737517e+002, 4.542347e+002
2.742338e+002, 4.581843e+002
2.747159e+002, 4.593879e+002
2.751980e+002, 4.595277e+002
2.756801e+002, 4.611742e+002
2.761623e+002, 4.647443e+002
2.766444e+002, 4.672293e+002
2.771265e+002, 4.668626e+002
2.776086e+002, 4.639927e+002
2.780907e+002, 4.646475e+002
2.785728e+002, 4.695995e+002
2.790550e+002, 4.758748e+002
2.795371e+002, 4.799084e+002
2.800192e+002, 4.814816e+002
2.805013e+002, 4.838803e+002
2.809834e+002, 4.881833e+002
2.814655e+002, 4.940282e+002
2.819477e+002, 4.997545e+002
2.824298e+002, 5.054020e+002
2.829119e+002, 5.105053e+002
2.833940e+002, 5.142526e+002
2.838761e+002, 5.166689e+002
2.843582e+002, 5.195558e+002
2.848404e+002, 5.233799e+002
2.853225e+002, 5.278795e+002
2.858046e+002, 5.323195e+002
2.862867e+002, 5.366490e+002
2.867688e+002, 5.409883e+002
2.872509e+002, 5.463018e+002
2.877331e+002, 5.522179e+002
2.882152e+002, 5.551276e+002
2.886973e+002, 5.537211e+002
2.891794e+002, 5.499149e+002
2.896615e+002, 5.475588e+002
2.901436e+002, 5.466266e+002
2.906258e+002, 5.463916e+002
2.911079e+002, 5.473095e+002
2.915900e+002, 5.487709e+002
2.920721e+002, 5.479557e+002
2.925542e+002, 5.442807e+002
2.930363e+002, 5.388951e+002
2.935185e+002, 5.331563e+002
2.940006e+002, 5.270662e+002
2.944827e+002, 5.211739e+002
2.949648e+002, 5.156716e+002
2.954469e+002, 5.104849e+002
2.959290e+002, 5.055876e+002
2.964112e+002, 5.009987e+002
2.968933e+002, 4.964359e+002
2.973754e+002, 4.915213e+002
2.978575e+002, 4.863738e+002
2.983396e+002, 4.813175e+002
2.988217e+002, 4.765366e+002
2.993039e+002, 4.719683e+002
2.997860e+002, 4.673853e+002
3.002681e+002, 4.627003e+002
3.007502e+002, 4.587599e+002
3.012323e+002, 4.572783e+002
3.017144e+002, 4.572483e+002
3.021966e+002, 4.563181e+002
3.026787e+002, 4.525743e+002
3.031608e+002, 4.479882e+002
3.036429e+002, 4.449927e+002
3.041250e+002, 4.435576e+002
3.046071e+002, 4.425424e+002
3.050893e+002, 4.409044e+002
3.055714e+002, 4.391374e+002
3.060535e+002, 4.380806e+002
3.065356e+002, 4.380458e+002
3.070177e+002, 4.387344e+002
3.074998e+002, 4.403236e+002
3.079820e+002, 4.426157e+002
3.084641e+002, 4.444871e+002
3.089462e+002, 4.443494e+002
3.094283e+002, 4.437784e+002
3.099104e+002, 4.445951e+002
3.103925e+002, 4.477376e+002
3.108747e+002, 4.514125e+002
3.113568e+002, 4.546221e+002
3.118389e+002, 4.574139e+002
3.123210e+002, 4.599084e+002
3.128031e+002, 4.611380e+002
3.132852e+002, 4.627445e+002
3.137674e+002, 4.663520e+002
3.142495e+002, 4.729030e+002
3.147316e+002, 4.791704e+002
3.152137e+002, 4.828228e+002
3.156958e+002, 4.851523e+002
3.161779e+002, 4.883654e+002
3.166601e+002, 4.942827e+002
3.171422e+002, 5.005275e+002
3.176243e+002, 5.058964e+002
3.181064e+002, 5.101704e+002
3.185885e+002, 5.139572e+002
3.190706e+002, 5.175496e+002
3.195528e+002, 5.207332e+002
3.200349e+002, 5.232634e+002
3.205170e+002, 5.240344e+002
3.209991e+002, 5.251366e+002
3.214812e+002, 5.277791e+002
3.219633e+002, 5.320137e+002
3.224455e+002, 5.349724e+002
3.229276e+002, 5.350878e+002
3.234097e+002, 5.342698e+002
3.238918e+002, 5.339476e+002
3.243739e+002, 5.345160e+002
3.248560e+002, 5.353733e+002
3.253382e+002, 5.369093e+002
3.258203e+002, 5.388951e+002
3.263024e+002, 5.397989e+002
3.267845e+002, 5.399419e+002
3.272666e+002, 5.386690e+002
3.277487e+002, 5.355773e+002
3.282309e+002, 5.281698e+002
3.287130e+002, 5.224319e+002
3.291951e+002, 5.196150e+002
3.296772e+002, 5.184323e+002
3.301593e+002, 5.155850e+002
3.306414e+002, 5.095860e+002
3.311236e+002, 5.036844e+002
3.316057e+002, 4.991165e+002
3.320878e+002, 4.966776e+002
3.325699e+002, 4.931024e+002
3.330520e+002, 4.878026e+002
3.335341e+002, 4.817914e+002
3.340163e+002, 4.766022e+002
3.344984e+002, 4.727995e+002
3.349805e+002, 4.687910e+002
3.354626e+002, 4.639058e+002
3.359447e+002, 4.580487e+002
3.364268e+002, 4.534767e+002
3.369090e+002, 4.506563e+002
3.373911e+002, 4.483394e+002
3.378732e+002, 4.452808e+002
3.383553e+002, 4.412598e+002
3.388374e+002, 4.373089e+002
3.393195e+002, 4.332331e+002
3.398017e+002, 4.293971e+002
3.402838e+002, 4.277484e+002
3.407659e+002, 4.288750e+002
3.412480e+002, 4.300651e+002
3.417301e+002, 4.290746e+002
3.422122e+002, 4.257901e+002
3.426944e+002, 4.233806e+002
3.431765e+002, 4.224352e+002
3.436586e+002, 4.221260e+002
3.441407e+002, 4.206864e+002
3.446228e+002, 4.181033e+002
3.451049e+002, 4.154341e+002
3.455871e+002, 4.131129e+002
3.460692e+002, 4.111548e+002
3.465513e+002, 4.099319e+002
3.470334e+002, 4.095674e+002
3.475155e+002, 4.094422e+002
3.479977e+002, 4.088282e+002
3.484798e+002, 4.077785e+002
3.489619e+002, 4.065564e+002
3.494440e+002, 4.048133e+002
3.499261e+002, 4.031213e+002
3.504082e+002, 4.029494e+002
3.508904e+002, 4.042903e+002
3.513725e+002, 4.056889e+002
3.518546e+002, 4.056856e+002
3.523367e+002, 4.048280e+002
3.528188e+002, 4.043226e+002
3.533009e+002, 4.048195e+002
3.537831e+002, 4.054126e+002
3.542652e+002, 4.047748e+002
3.547473e+002, 4.032049e+002
3.552294e+002, 4.020836e+002
3.557115e+002, 4.027236e+002
3.561936e+002, 4.040743e+002
3.566758e+002, 4.050526e+002
3.571579e+002, 4.055078e+002
3.576400e+002, 4.055152e+002
3.581221e+002, 4.047271e+002
3.586042e+002, 4.035591e+002
3.590863e+002, 4.028136e+002
3.595685e+002, 4.033073e+002
3.600506e+002, 4.040058e+002
3.605327e+002, 4.042706e+002
3.610148e+002, 4.040181e+002
3.614969e+002, 4.036380e+002
3.619790e+002, 4.028701e+002
3.624612e+002, 4.022172e+002
3.629433e+002, 4.022039e+002
3.634254e+002, 4.034994e+002
3.639075e+002, 4.049181e+002
3.643896e+002, 4.064587e+002
3.648717e+002, 4.080101e+002
3.653539e+002, 4.085323e+002
3.658360e+002, 4.060616e+002
3.663181e+002, 4.036364e+002
3.668002e+002, 4.030559e+002
3.672823e+002, 4.066020e+002
3.677644e+002, 4.093190e+002
3.682466e+002, 4.105775e+002
3.687287e+002, 4.107671e+002
3.692108e+002, 4.110011e+002
3.696929e+002, 4.118591e+002
3.701750e+002, 4.121576e+002
3.706571e+002, 4.113313e+002
3.711393e+002, 4.088228e+002
3.716214e+002, 4.070441e+002
3.721035e+002, 4.061164e+002
3.725856e+002, 4.058235e+002
3.730677e+002, 4.058770e+002
3.735498e+002, 4.061839e+002
3.740320e+002, 4.071239e+002
3.745141e+002, 4.092036e+002
3.749962e+002, 4.122608e+002
3.754783e+002, 4.135679e+002
3.759604e+002, 4.124916e+002
3.764425e+002, 4.110547e+002
3.769247e+002, 4.109704e+002
3.774068e+002, 4.124255e+002
3.778889e+002, 4.138354e+002
3.783710e+002, 4.150218e+002
3.788531e+002, 4.160130e+002
3.793352e+002, 4.167661e+002
3.798174e+002, 4.172324e+002
3.802995e+002, 4.179328e+002
3.807816e+002, 4.193492e+002
3.812637e+002, 4.213415e+002
3.817458e+002, 4.228719e+002
3.822279e+002, 4.238528e+002
3.827101e+002, 4.245804e+002
3.831922e+002, 4.253325e+002
3.836743e+002, 4.261358e+002
3.841564e+002, 4.270913e+002
3.846385e+002, 4.281053e+002
3.851206e+002, 4.293675e+002
3.856028e+002, 4.315661e+002
3.860849e+002, 4.346365e+002
3.865670e+002, 4.373351e+002
3.870491e+002, 4.382695e+002
3.875312e+002, 4.382982e+002
3.880133e+002, 4.388821e+002
3.884955e+002, 4.406282e+002
3.889776e+002, 4.425845e+002
3.894597e+002, 4.437093e+002
3.899418e+002, 4.443190e+002
3.904239e+002, 4.453084e+002
3.909060e+002, 4.474886e+002
3.913882e+002, 4.500182e+002
3.918703e+002, 4.521186e+002
3.923524e+002, 4.535721e+002
3.928345e+002, 4.554238e+002
3.933166e+002, 4.586639e+002
3.937987e+002, 4.624636e+002
3.942809e+002, 4.657316e+002
3.947630e+002, 4.673593e+002
3.952451e+002, 4.691888e+002
3.957272e+002, 4.722184e+002
3.962093e+002, 4.763423e+002
3.966914e+002, 4.797109e+002
3.971736e+002, 4.809751e+002
3.976557e+002, 4.820012e+002
3.981378e+002, 4.839365e+002
3.986199e+002, 4.875213e+002
