##NAMES=Kleinite
##RRUFFID=R060329
##IDEAL CHEMISTRY=Hg_2_N(Cl,S^6+^O_4_)&#183;nH_2_O
##LOCALITY=McDermott mine, Humboldt County, Nevada, USA
##OWNER=RRUFF
##SOURCE=Michael Scott
##DESCRIPTION=Light yellow hexagonal prismatic or tabular crystals, associated with orange or dark yellow platy terlinguacreekite.
##STATUS=The identification of this mineral has been confirmed by single-crystal X-ray diffraction.
##URL=rruff.info/R060329
92.19379, 991.8993
92.67590, 996.7960
93.15802, 999.1472
93.64014, 997.2063
94.12225, 992.9625
94.60437, 991.8742
95.08649, 996.5081
95.56860, 1004.050
96.05072, 1008.926
96.53284, 1011.838
97.01495, 1014.347
97.49707, 1017.512
97.97919, 1021.272
98.46130, 1025.629
98.94342, 1029.696
99.42554, 1033.747
99.90765, 1042.687
100.3898, 1057.507
100.8719, 1074.935
101.3540, 1090.248
101.8361, 1103.048
102.3182, 1115.806
102.8004, 1129.429
103.2825, 1143.638
103.7646, 1159.490
104.2467, 1177.677
104.7288, 1197.091
105.2109, 1214.997
105.6931, 1231.240
106.1752, 1246.754
106.6573, 1262.276
107.1394, 1278.807
107.6215, 1293.801
108.1036, 1307.873
108.5858, 1320.767
109.0679, 1330.457
109.5500, 1336.188
110.0321, 1339.604
110.5142, 1341.574
110.9963, 1342.127
111.4785, 1341.414
111.9606, 1338.827
112.4427, 1334.477
112.9248, 1330.951
113.4069, 1329.125
113.8890, 1327.986
114.3712, 1326.693
114.8533, 1323.934
115.3354, 1322.039
115.8175, 1321.813
116.2996, 1323.340
116.7817, 1325.712
117.2639, 1329.126
117.7460, 1333.066
118.2281, 1336.872
118.7102, 1340.393
119.1923, 1343.642
119.6744, 1346.748
120.1566, 1349.866
120.6387, 1352.120
121.1208, 1352.147
121.6029, 1350.842
122.0850, 1350.037
122.5671, 1349.863
123.0493, 1350.935
123.5314, 1354.434
124.0135, 1361.505
124.4956, 1368.530
124.9777, 1373.984
125.4598, 1377.088
125.9420, 1374.762
126.4241, 1362.930
126.9062, 1344.498
127.3883, 1324.485
127.8704, 1303.255
128.3525, 1281.760
128.8347, 1261.343
129.3168, 1241.901
129.7989, 1223.278
130.2810, 1204.947
130.7631, 1187.178
131.2452, 1170.346
131.7274, 1154.500
132.2095, 1139.709
132.6916, 1126.498
133.1737, 1114.935
133.6558, 1103.911
134.1379, 1092.124
134.6201, 1079.585
135.1022, 1066.663
135.5843, 1053.415
136.0664, 1039.884
136.5485, 1026.736
137.0306, 1013.783
137.5128, 1001.514
137.9949, 990.4584
138.4770, 980.8905
138.9591, 970.9310
139.4412, 959.4982
139.9233, 946.4831
140.4055, 934.8586
140.8876, 925.0613
141.3697, 916.1320
141.8518, 906.2269
142.3339, 894.6078
142.8160, 883.7460
143.2982, 874.7102
143.7803, 868.3036
144.2624, 861.3936
144.7445, 853.8729
145.2266, 845.8731
145.7087, 837.9465
146.1909, 829.3113
146.6730, 821.5897
147.1551, 815.4354
147.6372, 812.0670
148.1193, 808.3294
148.6014, 803.9420
149.0836, 799.1636
149.5657, 794.6747
150.0478, 790.0342
150.5299, 786.1365
151.0120, 783.3557
151.4941, 783.0154
151.9763, 782.2450
152.4584, 780.6258
152.9405, 778.3759
153.4226, 776.5900
153.9047, 775.9034
154.3868, 775.3327
154.8690, 774.3417
155.3511, 772.0349
155.8332, 770.1885
156.3153, 769.0980
156.7974, 768.7354
157.2795, 768.8389
157.7617, 769.6802
158.2438, 770.8072
158.7259, 771.8955
159.2080, 772.8062
159.6901, 773.7518
160.1722, 774.9529
160.6544, 776.3850
161.1365, 777.4656
161.6186, 777.4857
162.1007, 777.2625
162.5828, 777.5498
163.0649, 778.8648
163.5471, 780.4988
164.0292, 782.2687
164.5113, 784.1600
164.9934, 785.8151
165.4755, 787.4199
165.9576, 788.5837
166.4398, 788.8132
166.9219, 787.4834
167.4040, 785.4579
167.8861, 783.2492
168.3682, 780.8732
168.8503, 778.3343
169.3325, 776.0648
169.8146, 773.5817
170.2967, 770.1500
170.7788, 765.0896
171.2609, 759.1030
171.7430, 752.7996
172.2252, 746.1793
172.7073, 739.3710
173.1894, 732.5966
173.6715, 725.6594
174.1536, 718.3777
174.6357, 710.4639
175.1179, 702.1022
175.6000, 693.4453
176.0821, 684.5697
176.5642, 675.5048
177.0463, 666.1017
177.5284, 656.4703
178.0106, 647.1109
178.4927, 638.2469
178.9748, 629.7898
179.4569, 621.8651
179.9390, 614.4767
180.4211, 607.3752
180.9033, 600.1504
181.3854, 592.8193
181.8675, 585.6588
182.3496, 578.8918
182.8317, 572.4092
183.3138, 565.3988
183.7960, 557.6191
184.2781, 549.9317
184.7602, 543.8939
185.2423, 539.3100
185.7244, 535.0380
186.2065, 530.5007
186.6887, 525.6982
187.1708, 520.5378
187.6529, 514.9749
188.1350, 509.1373
188.6171, 503.2598
189.0992, 497.2970
189.5814, 491.5207
190.0635, 486.1873
190.5456, 481.1751
191.0277, 476.2466
191.5098, 471.4778
191.9919, 466.5693
192.4741, 460.7158
192.9562, 453.8840
193.4383, 447.3426
193.9204, 442.2915
194.4025, 438.6269
194.8846, 434.4884
195.3668, 429.4839
195.8489, 424.0830
196.3310, 419.4240
196.8131, 415.5609
197.2952, 412.0373
197.7773, 408.4789
198.2595, 404.8926
198.7416, 401.6765
199.2237, 399.0398
199.7058, 396.7123
200.1879, 394.0056
200.6700, 390.8685
201.1522, 387.4784
201.6343, 383.7939
202.1164, 379.7475
202.5985, 376.1377
203.0806, 373.1917
203.5627, 370.7052
204.0449, 367.9937
204.5270, 364.9196
205.0091, 362.0638
205.4912, 359.9324
205.9733, 358.6651
206.4554, 357.2534
206.9376, 355.5026
207.4197, 353.5531
207.9018, 351.8585
208.3839, 350.4267
208.8660, 349.2320
209.3481, 348.3905
209.8303, 348.0606
210.3124, 347.3836
210.7945, 346.2866
211.2766, 344.7797
211.7587, 342.8715
212.2408, 340.6028
212.7230, 337.8337
213.2051, 334.2648
213.6872, 329.5238
214.1693, 325.2422
214.6514, 321.6749
215.1335, 318.6949
215.6157, 315.8626
216.0978, 313.0302
216.5799, 310.5563
217.0620, 308.7397
217.5441, 307.8494
218.0262, 306.8062
218.5084, 305.4570
218.9905, 303.8544
219.4726, 302.3556
219.9547, 301.0063
220.4368, 299.6497
220.9189, 298.2014
221.4011, 296.6258
221.8832, 295.0330
222.3653, 293.4001
222.8474, 291.7614
223.3295, 290.2015
223.8116, 288.8456
224.2938, 287.4313
224.7759, 285.6808
225.2580, 283.1292
225.7401, 281.4586
226.2222, 281.1645
226.7043, 281.8378
227.1865, 281.7275
227.6686, 280.5565
228.1507, 279.0144
228.6328, 277.5063
229.1149, 276.1525
229.5970, 274.5513
230.0792, 272.6324
230.5613, 270.4508
231.0434, 268.2224
231.5255, 265.7325
232.0076, 263.5576
232.4897, 262.1057
232.9719, 261.7901
233.4540, 261.2844
233.9361, 260.5139
234.4182, 259.5198
234.9003, 258.4030
235.3824, 257.0282
235.8646, 255.7240
236.3467, 254.6641
236.8288, 253.9567
237.3109, 253.2357
237.7930, 252.4249
238.2751, 251.5962
238.7573, 251.0007
239.2394, 250.6938
239.7215, 250.5293
240.2036, 250.4751
240.6857, 250.6825
241.1678, 250.6227
241.6500, 250.1218
242.1321, 249.3999
242.6142, 249.0096
243.0963, 249.0181
243.5784, 249.2683
244.0605, 249.7199
244.5427, 250.4652
245.0248, 251.1885
245.5069, 251.9039
245.9890, 252.5980
246.4711, 253.2116
246.9532, 253.6662
247.4354, 254.1862
247.9175, 254.8443
248.3996, 255.6431
248.8817, 256.6220
249.3638, 257.9474
249.8459, 259.3656
250.3281, 260.2917
250.8102, 260.1329
251.2923, 260.5401
251.7744, 262.3335
252.2565, 266.0677
252.7386, 268.7131
253.2208, 269.7620
253.7029, 270.0951
254.1850, 271.1745
254.6671, 273.4707
255.1492, 275.5849
255.6313, 276.9486
256.1135, 277.3613
256.5956, 278.3668
257.0777, 280.2396
257.5598, 282.4165
258.0419, 284.1112
258.5240, 285.0883
259.0062, 286.0739
259.4883, 287.3497
259.9704, 288.9388
260.4525, 290.1186
260.9346, 290.8413
261.4167, 291.2002
261.8989, 291.2078
262.3810, 290.6594
262.8631, 290.3348
263.3452, 290.5309
263.8273, 291.2493
264.3094, 291.5938
264.7916, 291.5611
265.2737, 291.1889
265.7558, 290.4422
266.2379, 289.2029
266.7200, 288.0208
267.2021, 287.0879
267.6843, 286.3416
268.1664, 284.9688
268.6485, 282.5870
269.1306, 280.3713
269.6127, 279.6924
270.0948, 281.1432
270.5770, 281.3897
271.0591, 279.5627
271.5412, 276.1315
272.0233, 273.3105
272.5054, 271.3030
272.9875, 269.4639
273.4697, 267.2537
273.9518, 264.5313
274.4339, 262.2903
274.9160, 260.8254
275.3981, 259.8197
275.8802, 258.1562
276.3624, 255.6750
276.8445, 253.2720
277.3266, 251.6515
277.8087, 250.8883
278.2908, 249.7850
278.7729, 248.1720
279.2551, 246.2593
279.7372, 244.5773
280.2193, 243.1594
280.7014, 241.7241
281.1835, 240.0050
281.6656, 238.0109
282.1478, 236.3710
282.6299, 235.1572
283.1120, 234.2104
283.5941, 233.3686
284.0762, 232.6416
284.5583, 231.7287
285.0405, 230.3269
285.5226, 228.5172
286.0047, 227.0642
286.4868, 226.0029
286.9689, 225.1944
287.4510, 224.5137
287.9332, 223.9540
288.4153, 223.3825
288.8974, 222.7064
289.3795, 221.9787
289.8616, 221.5419
290.3438, 221.4568
290.8259, 221.2349
291.3080, 220.0882
291.7901, 218.2070
292.2722, 216.6857
292.7543, 216.0466
293.2365, 215.9363
293.7186, 215.4851
294.2007, 214.6899
294.6828, 213.9677
295.1649, 213.8233
295.6470, 214.0831
296.1292, 214.1640
296.6113, 213.8775
297.0934, 213.3802
297.5755, 212.9089
298.0576, 212.4551
298.5397, 211.9500
299.0219, 211.2390
299.5040, 210.4417
299.9861, 209.8432
300.4682, 209.5509
300.9503, 209.3718
301.4324, 209.1168
301.9146, 208.7887
302.3967, 208.3827
302.8788, 207.8996
303.3609, 207.3387
303.8430, 206.6753
304.3251, 205.8726
304.8073, 205.0948
305.2894, 204.4691
305.7715, 203.9805
306.2536, 203.5765
306.7357, 203.3040
307.2178, 203.0639
307.7000, 202.7138
308.1821, 202.2197
308.6642, 201.8150
309.1463, 201.8216
309.6284, 202.0044
310.1105, 201.9973
310.5927, 201.5157
311.0748, 200.8818
311.5569, 200.2672
312.0390, 199.6810
312.5211, 199.1920
313.0032, 198.9573
313.4854, 198.7928
313.9675, 198.5061
314.4496, 197.7727
314.9317, 197.1438
315.4138, 197.0395
315.8959, 197.3560
316.3781, 197.4451
316.8602, 196.8097
317.3423, 195.9675
317.8244, 195.3168
318.3065, 195.2229
318.7886, 194.9361
319.2708, 193.9381
319.7529, 192.5222
320.2350, 191.5108
320.7171, 191.9332
321.1992, 192.2373
321.6813, 191.5551
322.1635, 189.2447
322.6456, 187.1573
323.1277, 185.5925
323.6098, 184.4732
324.0919, 183.6682
324.5740, 183.7375
325.0562, 183.5962
325.5383, 182.8406
326.0204, 181.2829
326.5025, 179.8098
326.9846, 178.5230
327.4667, 177.3355
327.9489, 176.1379
328.4310, 174.8123
328.9131, 173.6139
329.3952, 172.7206
329.8773, 172.1521
330.3594, 171.0912
330.8416, 169.1103
331.3237, 167.0135
331.8058, 165.3946
332.2879, 164.6180
332.7700, 163.6700
333.2521, 162.2659
333.7343, 160.5823
334.2164, 159.5355
334.6985, 159.4854
335.1806, 159.5245
335.6627, 159.1736
336.1448, 158.3362
336.6270, 157.3895
337.1091, 156.2859
337.5912, 155.1318
338.0733, 154.1275
338.5554, 153.3012
339.0375, 152.5678
339.5197, 151.9118
340.0018, 151.3437
340.4839, 150.7791
340.9660, 150.2483
341.4481, 149.6779
341.9302, 148.9409
342.4124, 148.0118
342.8945, 147.1622
343.3766, 146.4113
343.8587, 145.8025
344.3408, 145.6231
344.8229, 145.9390
345.3051, 146.2354
345.7872, 146.0113
346.2693, 145.3293
346.7514, 144.5364
347.2335, 143.5905
347.7156, 142.7275
348.1978, 142.5730
348.6799, 143.0742
349.1620, 143.5542
349.6441, 143.4604
350.1262, 143.0170
350.6083, 142.7680
351.0905, 142.8066
351.5726, 142.9372
352.0547, 142.9311
352.5368, 142.8273
353.0189, 142.7437
353.5010, 142.7712
353.9832, 142.8355
354.4653, 142.8844
354.9474, 142.9194
355.4295, 142.8271
355.9116, 142.4246
356.3937, 141.8540
356.8759, 141.3336
357.3580, 140.7984
357.8401, 140.4539
358.3222, 140.6005
358.8043, 141.1475
359.2864, 141.5453
359.7686, 141.2189
360.2507, 140.7662
360.7328, 140.7532
361.2149, 141.6936
361.6970, 142.4285
362.1791, 142.3395
362.6613, 141.6988
363.1434, 141.1343
363.6255, 140.8343
364.1076, 140.6614
364.5897, 140.5961
365.0718, 140.7083
365.5540, 140.6760
366.0361, 140.2038
366.5182, 139.6377
367.0003, 139.3931
367.4824, 139.8358
367.9645, 140.2784
368.4467, 140.5994
368.9288, 140.7908
369.4109, 140.9093
369.8930, 140.9966
370.3751, 140.9835
370.8572, 140.7876
371.3394, 140.0460
371.8215, 139.7697
372.3036, 140.3268
372.7857, 141.3938
373.2678, 141.7652
373.7499, 141.0759
374.2321, 140.3389
374.7142, 140.0192
375.1963, 140.1811
375.6784, 140.5271
376.1605, 141.1964
376.6426, 141.8647
377.1248, 141.8844
377.6069, 141.1082
378.0890, 140.5836
378.5711, 140.7683
379.0532, 141.5388
379.5353, 141.9622
380.0175, 142.0016
380.4996, 141.9002
380.9817, 141.9378
381.4638, 142.0778
381.9459, 141.9716
382.4280, 141.4650
382.9102, 140.7873
383.3923, 140.2645
383.8744, 139.9113
384.3565, 139.9346
384.8386, 140.9253
385.3207, 142.3150
385.8029, 142.7600
386.2850, 141.9930
386.7671, 141.0298
387.2492, 141.0020
387.7313, 141.5794
388.2134, 142.0117
388.6956, 141.7530
389.1777, 141.3283
389.6598, 141.1821
390.1419, 141.3186
390.6240, 141.6166
391.1061, 142.2029
391.5883, 142.8328
392.0704, 143.2479
392.5525, 143.2980
393.0346, 143.2346
393.5167, 142.9740
393.9988, 142.6661
394.4810, 142.7247
394.9631, 143.7702
395.4452, 144.8481
395.9273, 145.4226
396.4094, 145.2344
396.8915, 145.1765
397.3737, 145.5485
397.8558, 146.0908
398.3379, 146.4833
398.8200, 146.3672
399.3021, 146.4438
399.7842, 146.9490
400.2664, 147.8786
400.7485, 148.5736
401.2306, 148.7852
401.7127, 148.9920
402.1948, 149.5090
402.6769, 150.4939
403.1591, 151.4831
403.6412, 152.6411
404.1233, 153.6989
404.6054, 153.8421
405.0875, 152.6805
405.5696, 151.7585
406.0518, 151.8582
406.5339, 153.0211
407.0160, 153.6520
407.4981, 153.5697
407.9802, 153.4580
408.4623, 154.3018
408.9445, 156.0823
409.4266, 157.4880
409.9087, 158.0279
410.3908, 158.1058
410.8729, 158.7275
411.3550, 159.8799
411.8372, 161.0021
412.3193, 161.6081
412.8014, 161.9014
413.2835, 162.3561
413.7656, 163.0417
414.2477, 163.8723
414.7299, 164.6865
415.2120, 165.5653
415.6941, 166.6812
416.1762, 168.4576
416.6583, 170.2930
417.1404, 171.5873
417.6226, 172.3539
418.1047, 173.0585
418.5868, 174.0431
419.0689, 175.0655
419.5510, 175.8928
420.0331, 176.2067
420.5153, 176.6509
420.9974, 177.5636
421.4795, 178.7967
421.9616, 179.9393
422.4437, 180.8520
422.9258, 181.7017
423.4080, 182.5572
423.8901, 183.4452
424.3722, 184.3054
424.8543, 185.0388
425.3364, 185.7948
425.8185, 186.7121
426.3007, 187.8206
426.7828, 189.0750
427.2649, 190.5522
427.7470, 192.1919
428.2291, 193.6378
428.7112, 194.8178
429.1934, 195.9071
429.6755, 196.9528
430.1576, 197.8694
430.6397, 199.2073
431.1218, 201.1201
431.6039, 203.2213
432.0861, 204.8568
432.5682, 205.9866
433.0503, 207.2415
433.5324, 208.9099
434.0145, 210.8690
434.4966, 212.6930
434.9788, 214.3809
435.4609, 216.0191
435.9430, 217.5733
436.4251, 219.1515
436.9072, 221.1053
437.3893, 223.6424
437.8715, 226.2372
438.3536, 228.1731
438.8357, 229.6601
439.3178, 231.2835
439.7999, 233.2721
440.2820, 235.5846
440.7642, 238.2379
441.2463, 241.2530
441.7284, 244.2913
442.2105, 247.4911
442.6926, 250.4992
443.1747, 252.9619
443.6569, 254.3125
444.1390, 255.6732
444.6211, 257.2133
445.1032, 259.0035
445.5853, 261.2021
446.0674, 264.2380
446.5496, 267.3551
447.0317, 270.3354
447.5138, 273.2637
447.9959, 275.7583
448.4780, 277.3719
448.9601, 278.8893
449.4423, 281.2199
449.9244, 285.0819
450.4065, 288.1851
450.8886, 289.9431
451.3707, 290.6949
451.8528, 291.9671
452.3350, 293.8965
452.8171, 295.9518
453.2992, 297.8643
453.7813, 299.6347
454.2634, 301.5110
454.7455, 303.5181
455.2277, 305.5953
455.7098, 307.7578
456.1919, 309.9624
456.6740, 312.0693
457.1561, 313.9026
457.6382, 315.6711
458.1204, 317.7392
458.6025, 320.0829
459.0846, 322.3786
459.5667, 324.3396
460.0488, 326.1837
460.5309, 328.2697
461.0131, 330.7176
461.4952, 333.0616
461.9773, 334.7875
462.4594, 336.2138
462.9415, 337.8306
463.4236, 339.5053
463.9058, 341.6764
464.3879, 344.8152
464.8700, 348.7780
465.3521, 352.5628
465.8342, 355.6074
466.3163, 358.6730
466.7985, 362.1725
467.2806, 366.1441
467.7627, 370.5454
468.2448, 375.7514
468.7269, 381.1786
469.2090, 385.9955
469.6912, 389.6629
470.1733, 393.7998
470.6554, 398.8607
471.1375, 404.7558
471.6196, 410.6136
472.1017, 416.4000
472.5839, 422.2573
473.0660, 428.5116
473.5481, 435.1424
474.0302, 441.4593
474.5123, 447.3436
474.9944, 453.0930
475.4766, 459.0073
475.9587, 465.1259
476.4408, 471.7178
476.9229, 479.0276
477.4050, 486.7310
477.8871, 494.3160
478.3693, 501.7882
478.8514, 509.1487
479.3335, 515.9974
479.8156, 522.9408
480.2977, 530.7147
480.7798, 539.5864
481.2620, 548.7083
481.7441, 557.5779
482.2262, 566.3633
482.7083, 575.3134
483.1904, 584.5748
483.6725, 593.9739
484.1547, 603.3162
484.6368, 612.5810
485.1189, 622.1489
485.6010, 632.2347
486.0831, 642.5348
486.5652, 652.7791
487.0474, 662.8352
487.5295, 673.2929
488.0116, 684.3152
488.4937, 695.4948
488.9758, 706.4386
489.4579, 717.2835
489.9401, 727.4812
490.4222, 736.6652
490.9043, 745.1580
491.3864, 755.0674
491.8685, 766.6194
492.3506, 778.3203
492.8328, 789.2807
493.3149, 799.5280
493.7970, 809.0442
494.2791, 817.6035
494.7612, 826.7800
495.2433, 839.7480
495.7255, 854.9248
496.2076, 868.3428
496.6897, 877.4061
497.1718, 885.2430
497.6539, 894.0203
498.1360, 903.7950
498.6182, 915.0271
499.1003, 929.6125
499.5824, 944.5626
500.0645, 957.1729
500.5466, 966.7540
501.0287, 976.7057
501.5109, 987.8104
501.9930, 999.8785
502.4751, 1012.589
502.9572, 1026.350
503.4393, 1040.193
503.9214, 1053.693
504.4036, 1067.040
504.8857, 1081.401
505.3678, 1097.542
505.8499, 1113.634
506.3320, 1128.807
506.8141, 1142.949
507.2963, 1157.753
507.7784, 1173.338
508.2605, 1189.800
508.7426, 1207.885
509.2247, 1227.474
509.7068, 1246.646
510.1890, 1264.709
510.6711, 1282.750
511.1532, 1302.226
511.6353, 1323.078
512.1174, 1344.474
512.5995, 1366.611
513.0817, 1388.928
513.5638, 1410.608
514.0459, 1431.670
514.5280, 1452.899
515.0101, 1473.945
515.4922, 1495.932
515.9744, 1519.689
516.4565, 1545.869
516.9386, 1573.256
517.4207, 1602.711
517.9028, 1632.900
518.3849, 1661.630
518.8671, 1685.792
519.3492, 1711.447
519.8313, 1740.283
520.3134, 1771.919
520.7955, 1804.632
521.2776, 1838.271
521.7598, 1873.323
522.2419, 1909.879
522.7240, 1948.370
523.2061, 1986.837
523.6882, 2025.236
524.1703, 2063.963
524.6525, 2103.023
525.1346, 2142.689
525.6167, 2185.298
526.0988, 2232.099
526.5809, 2280.845
527.0630, 2326.551
527.5452, 2369.779
528.0273, 2414.501
528.5094, 2463.702
528.9915, 2515.684
529.4736, 2569.613
529.9557, 2625.683
530.4379, 2682.144
530.9200, 2739.154
531.4021, 2796.140
531.8842, 2852.696
532.3663, 2907.409
532.8484, 2963.382
533.3306, 3021.448
533.8127, 3081.128
534.2948, 3139.944
534.7769, 3198.338
535.2590, 3256.026
535.7411, 3312.859
536.2233, 3368.650
536.7054, 3424.816
537.1875, 3481.419
537.6696, 3537.501
538.1517, 3593.651
538.6339, 3649.669
539.1160, 3702.712
539.5981, 3752.453
540.0802, 3799.049
540.5623, 3844.785
541.0444, 3888.956
541.5266, 3928.781
542.0087, 3963.449
542.4908, 3993.219
542.9729, 4019.498
543.4550, 4041.015
543.9371, 4053.736
544.4193, 4053.597
544.9014, 4044.876
545.3835, 4030.814
545.8656, 4011.671
546.3477, 3987.211
546.8298, 3956.587
547.3120, 3920.592
547.7941, 3880.158
548.2762, 3833.741
548.7583, 3784.722
549.2404, 3730.965
549.7225, 3675.430
550.2047, 3622.957
550.6868, 3573.559
551.1689, 3527.101
551.6510, 3484.372
552.1331, 3444.881
552.6152, 3406.091
553.0974, 3367.563
553.5795, 3332.148
554.0616, 3301.801
554.5437, 3276.300
555.0258, 3254.132
555.5079, 3235.152
555.9901, 3219.886
556.4722, 3210.226
556.9543, 3204.356
557.4364, 3198.556
557.9185, 3191.913
558.4006, 3184.698
558.8828, 3176.906
559.3649, 3168.616
559.8470, 3159.888
560.3291, 3151.709
560.8112, 3142.085
561.2933, 3130.834
561.7755, 3117.875
562.2576, 3100.138
562.7397, 3076.646
563.2218, 3048.732
