##NAMES=Mikenewite
##RRUFFID=R210021
##IDEAL CHEMISTRY=Mn^2+^(S^4+^O_3_)&#183;3H_2_O
##LOCALITY=Ojuela mine, Mapimí, Municipio de Mapimí, Durango, Mexico
##OWNER=RRUFF
##SOURCE=Bob Jenkins
##DESCRIPTION=Yellowish spheres, associated with adamite and lotharmeyerite, type sample
##STATUS=The identification of this mineral is confirmed by single-crystal X-ray diffraction and chemical analysis.
##URL=rruff.info/R210021
##MEASURED CHEMISTRY=(Mn_0.85_Zn_0.11_Fe_0.04_Ca_0.02_)S_0.99_O_3_·3H_2_O ;  The sample is prone to the electron beam damage, but it did not seem to affect the relative proportions of cations. 
8.813672e+001, 2.245407e+002
8.861884e+001, 2.295347e+002
8.910095e+001, 2.331715e+002
8.958307e+001, 2.349344e+002
9.006519e+001, 2.357226e+002
9.054730e+001, 2.361089e+002
9.102942e+001, 2.362940e+002
9.151154e+001, 2.367271e+002
9.199365e+001, 2.388059e+002
9.247577e+001, 2.417045e+002
9.295789e+001, 2.429392e+002
9.344000e+001, 2.400160e+002
9.392212e+001, 2.346234e+002
9.440424e+001, 2.311191e+002
9.488635e+001, 2.300513e+002
9.536847e+001, 2.303670e+002
9.585059e+001, 2.310824e+002
9.633270e+001, 2.321444e+002
9.681482e+001, 2.325925e+002
9.729694e+001, 2.314058e+002
9.777905e+001, 2.287424e+002
9.826117e+001, 2.270520e+002
9.874329e+001, 2.266105e+002
9.922540e+001, 2.271170e+002
9.970752e+001, 2.281385e+002
1.001896e+002, 2.298806e+002
1.006718e+002, 2.312522e+002
1.011539e+002, 2.313727e+002
1.016360e+002, 2.299528e+002
1.021181e+002, 2.286550e+002
1.026002e+002, 2.274782e+002
1.030823e+002, 2.265322e+002
1.035645e+002, 2.267632e+002
1.040466e+002, 2.285830e+002
1.045287e+002, 2.310063e+002
1.050108e+002, 2.332608e+002
1.054929e+002, 2.352242e+002
1.059750e+002, 2.372576e+002
1.064572e+002, 2.395068e+002
1.069393e+002, 2.420492e+002
1.074214e+002, 2.442504e+002
1.079035e+002, 2.459108e+002
1.083856e+002, 2.473822e+002
1.088677e+002, 2.490185e+002
1.093499e+002, 2.513485e+002
1.098320e+002, 2.533923e+002
1.103141e+002, 2.548074e+002
1.107962e+002, 2.552408e+002
1.112783e+002, 2.562448e+002
1.117604e+002, 2.575683e+002
1.122426e+002, 2.595828e+002
1.127247e+002, 2.628455e+002
1.132068e+002, 2.687455e+002
1.136889e+002, 2.748985e+002
1.141710e+002, 2.801660e+002
1.146531e+002, 2.835790e+002
1.151353e+002, 2.877030e+002
1.156174e+002, 2.942690e+002
1.160995e+002, 3.022113e+002
1.165816e+002, 3.089006e+002
1.170637e+002, 3.125666e+002
1.175458e+002, 3.150750e+002
1.180280e+002, 3.177007e+002
1.185101e+002, 3.208018e+002
1.189922e+002, 3.239800e+002
1.194743e+002, 3.267076e+002
1.199564e+002, 3.291866e+002
1.204385e+002, 3.322770e+002
1.209207e+002, 3.369090e+002
1.214028e+002, 3.422867e+002
1.218849e+002, 3.474820e+002
1.223670e+002, 3.519854e+002
1.228491e+002, 3.564161e+002
1.233312e+002, 3.616133e+002
1.238134e+002, 3.675250e+002
1.242955e+002, 3.729219e+002
1.247776e+002, 3.762536e+002
1.252597e+002, 3.783301e+002
1.257418e+002, 3.807961e+002
1.262239e+002, 3.857945e+002
1.267061e+002, 3.911860e+002
1.271882e+002, 3.926416e+002
1.276703e+002, 3.898431e+002
1.281524e+002, 3.864074e+002
1.286345e+002, 3.867448e+002
1.291166e+002, 3.900708e+002
1.295988e+002, 3.928469e+002
1.300809e+002, 3.930009e+002
1.305630e+002, 3.912035e+002
1.310451e+002, 3.899367e+002
1.315272e+002, 3.895321e+002
1.320093e+002, 3.888980e+002
1.324915e+002, 3.858057e+002
1.329736e+002, 3.802624e+002
1.334557e+002, 3.752147e+002
1.339378e+002, 3.729302e+002
1.344199e+002, 3.731748e+002
1.349020e+002, 3.718603e+002
1.353842e+002, 3.680224e+002
1.358663e+002, 3.633245e+002
1.363484e+002, 3.615424e+002
1.368305e+002, 3.632194e+002
1.373126e+002, 3.653089e+002
1.377947e+002, 3.657408e+002
1.382769e+002, 3.641733e+002
1.387590e+002, 3.632318e+002
1.392411e+002, 3.633457e+002
1.397232e+002, 3.642274e+002
1.402053e+002, 3.647100e+002
1.406874e+002, 3.646380e+002
1.411696e+002, 3.645190e+002
1.416517e+002, 3.649544e+002
1.421338e+002, 3.666844e+002
1.426159e+002, 3.669419e+002
1.430980e+002, 3.648315e+002
1.435801e+002, 3.606721e+002
1.440623e+002, 3.578916e+002
1.445444e+002, 3.572115e+002
1.450265e+002, 3.571579e+002
1.455086e+002, 3.565619e+002
1.459907e+002, 3.550024e+002
1.464728e+002, 3.535527e+002
1.469550e+002, 3.519344e+002
1.474371e+002, 3.500314e+002
1.479192e+002, 3.502000e+002
1.484013e+002, 3.546902e+002
1.488834e+002, 3.599151e+002
1.493655e+002, 3.625787e+002
1.498477e+002, 3.595654e+002
1.503298e+002, 3.572670e+002
1.508119e+002, 3.570230e+002
1.512940e+002, 3.592438e+002
1.517761e+002, 3.611185e+002
1.522583e+002, 3.626485e+002
1.527404e+002, 3.637432e+002
1.532225e+002, 3.643138e+002
1.537046e+002, 3.640330e+002
1.541867e+002, 3.635195e+002
1.546688e+002, 3.627657e+002
1.551510e+002, 3.615562e+002
1.556331e+002, 3.609914e+002
1.561152e+002, 3.622870e+002
1.565973e+002, 3.641002e+002
1.570794e+002, 3.646183e+002
1.575615e+002, 3.614870e+002
1.580437e+002, 3.586180e+002
1.585258e+002, 3.577615e+002
1.590079e+002, 3.597473e+002
1.594900e+002, 3.617911e+002
1.599721e+002, 3.634027e+002
1.604542e+002, 3.645152e+002
1.609364e+002, 3.650097e+002
1.614185e+002, 3.638041e+002
1.619006e+002, 3.626743e+002
1.623827e+002, 3.625974e+002
1.628648e+002, 3.638348e+002
1.633469e+002, 3.658662e+002
1.638291e+002, 3.688129e+002
1.643112e+002, 3.723934e+002
1.647933e+002, 3.760242e+002
1.652754e+002, 3.799821e+002
1.657575e+002, 3.835857e+002
1.662396e+002, 3.860703e+002
1.667218e+002, 3.864091e+002
1.672039e+002, 3.872969e+002
1.676860e+002, 3.905736e+002
1.681681e+002, 3.958015e+002
1.686502e+002, 4.017150e+002
1.691323e+002, 4.085006e+002
1.696145e+002, 4.151978e+002
1.700966e+002, 4.206608e+002
1.705787e+002, 4.239036e+002
1.710608e+002, 4.269438e+002
1.715429e+002, 4.317751e+002
1.720250e+002, 4.380687e+002
1.725072e+002, 4.439927e+002
1.729893e+002, 4.483812e+002
1.734714e+002, 4.518002e+002
1.739535e+002, 4.549547e+002
1.744356e+002, 4.577381e+002
1.749177e+002, 4.606646e+002
1.753999e+002, 4.649271e+002
1.758820e+002, 4.703117e+002
1.763641e+002, 4.747648e+002
1.768462e+002, 4.767777e+002
1.773283e+002, 4.769047e+002
1.778104e+002, 4.760536e+002
1.782926e+002, 4.737964e+002
1.787747e+002, 4.713293e+002
1.792568e+002, 4.708865e+002
1.797389e+002, 4.723564e+002
1.802210e+002, 4.734375e+002
1.807031e+002, 4.719536e+002
1.811853e+002, 4.685248e+002
1.816674e+002, 4.646640e+002
1.821495e+002, 4.603141e+002
1.826316e+002, 4.561390e+002
1.831137e+002, 4.536417e+002
1.835958e+002, 4.528145e+002
1.840780e+002, 4.527457e+002
1.845601e+002, 4.529974e+002
1.850422e+002, 4.534012e+002
1.855243e+002, 4.532221e+002
1.860064e+002, 4.518399e+002
1.864885e+002, 4.498336e+002
1.869707e+002, 4.486889e+002
1.874528e+002, 4.484151e+002
1.879349e+002, 4.488122e+002
1.884170e+002, 4.499185e+002
1.888991e+002, 4.516516e+002
1.893812e+002, 4.533268e+002
1.898634e+002, 4.547595e+002
1.903455e+002, 4.559791e+002
1.908276e+002, 4.570172e+002
1.913097e+002, 4.578354e+002
1.917918e+002, 4.587445e+002
1.922739e+002, 4.602632e+002
1.927561e+002, 4.623891e+002
1.932382e+002, 4.642172e+002
1.937203e+002, 4.654145e+002
1.942024e+002, 4.660493e+002
1.946845e+002, 4.665673e+002
1.951666e+002, 4.669630e+002
1.956488e+002, 4.671964e+002
1.961309e+002, 4.671057e+002
1.966130e+002, 4.666523e+002
1.970951e+002, 4.664088e+002
1.975772e+002, 4.668598e+002
1.980593e+002, 4.678554e+002
1.985415e+002, 4.675998e+002
1.990236e+002, 4.658842e+002
1.995057e+002, 4.635217e+002
1.999878e+002, 4.614273e+002
2.004699e+002, 4.595933e+002
2.009520e+002, 4.582289e+002
2.014342e+002, 4.577508e+002
2.019163e+002, 4.581207e+002
2.023984e+002, 4.573220e+002
2.028805e+002, 4.550662e+002
2.033626e+002, 4.522538e+002
2.038447e+002, 4.502850e+002
2.043269e+002, 4.494754e+002
2.048090e+002, 4.479456e+002
2.052911e+002, 4.447896e+002
2.057732e+002, 4.399333e+002
2.062553e+002, 4.359329e+002
2.067374e+002, 4.329606e+002
2.072196e+002, 4.305424e+002
2.077017e+002, 4.281717e+002
2.081838e+002, 4.259804e+002
2.086659e+002, 4.232606e+002
2.091480e+002, 4.193637e+002
2.096301e+002, 4.140318e+002
2.101123e+002, 4.108644e+002
2.105944e+002, 4.107453e+002
2.110765e+002, 4.115721e+002
2.115586e+002, 4.101616e+002
2.120407e+002, 4.056485e+002
2.125228e+002, 4.013141e+002
2.130050e+002, 3.981998e+002
2.134871e+002, 3.964041e+002
2.139692e+002, 3.949590e+002
2.144513e+002, 3.939060e+002
2.149334e+002, 3.931593e+002
2.154155e+002, 3.925826e+002
2.158977e+002, 3.921606e+002
2.163798e+002, 3.919655e+002
2.168619e+002, 3.921554e+002
2.173440e+002, 3.928467e+002
2.178261e+002, 3.929190e+002
2.183082e+002, 3.920414e+002
2.187904e+002, 3.908871e+002
2.192725e+002, 3.903593e+002
2.197546e+002, 3.905004e+002
2.202367e+002, 3.912248e+002
2.207188e+002, 3.927272e+002
2.212009e+002, 3.952518e+002
2.216831e+002, 3.969913e+002
2.221652e+002, 3.978231e+002
2.226473e+002, 3.980008e+002
2.231294e+002, 3.975641e+002
2.236115e+002, 3.954474e+002
2.240936e+002, 3.948975e+002
2.245758e+002, 3.972943e+002
2.250579e+002, 4.032336e+002
2.255400e+002, 4.077079e+002
2.260221e+002, 4.099384e+002
2.265042e+002, 4.113963e+002
2.269863e+002, 4.139470e+002
2.274685e+002, 4.179966e+002
2.279506e+002, 4.224233e+002
2.284327e+002, 4.269050e+002
2.289148e+002, 4.314291e+002
2.293969e+002, 4.364764e+002
2.298790e+002, 4.426197e+002
2.303612e+002, 4.487791e+002
2.308433e+002, 4.535233e+002
2.313254e+002, 4.561152e+002
2.318075e+002, 4.586848e+002
2.322896e+002, 4.616788e+002
2.327717e+002, 4.650841e+002
2.332539e+002, 4.689232e+002
2.337360e+002, 4.733468e+002
2.342181e+002, 4.779755e+002
2.347002e+002, 4.824897e+002
2.351823e+002, 4.871310e+002
2.356644e+002, 4.912102e+002
2.361466e+002, 4.947772e+002
2.366287e+002, 4.979242e+002
2.371108e+002, 4.993669e+002
2.375929e+002, 4.981143e+002
2.380750e+002, 4.960703e+002
2.385571e+002, 4.953209e+002
2.390393e+002, 4.968553e+002
2.395214e+002, 4.978607e+002
2.400035e+002, 4.975985e+002
2.404856e+002, 4.959743e+002
2.409677e+002, 4.949630e+002
2.414498e+002, 4.952718e+002
2.419320e+002, 4.955023e+002
2.424141e+002, 4.941364e+002
2.428962e+002, 4.899155e+002
2.433783e+002, 4.864872e+002
2.438604e+002, 4.849600e+002
2.443425e+002, 4.853208e+002
2.448247e+002, 4.839359e+002
2.453068e+002, 4.796358e+002
2.457889e+002, 4.747997e+002
2.462710e+002, 4.716403e+002
2.467531e+002, 4.717331e+002
2.472352e+002, 4.703180e+002
2.477174e+002, 4.661327e+002
2.481995e+002, 4.594023e+002
2.486816e+002, 4.537779e+002
2.491637e+002, 4.499471e+002
2.496458e+002, 4.464204e+002
2.501279e+002, 4.419118e+002
2.506101e+002, 4.354460e+002
2.510922e+002, 4.301159e+002
2.515743e+002, 4.267101e+002
2.520564e+002, 4.249648e+002
2.525385e+002, 4.228044e+002
2.530206e+002, 4.200339e+002
2.535028e+002, 4.170936e+002
2.539849e+002, 4.144085e+002
2.544670e+002, 4.122276e+002
2.549491e+002, 4.095029e+002
2.554312e+002, 4.055186e+002
2.559133e+002, 4.008089e+002
2.563955e+002, 3.983257e+002
2.568776e+002, 3.993307e+002
2.573597e+002, 4.006030e+002
2.578418e+002, 3.999506e+002
2.583239e+002, 3.963271e+002
2.588061e+002, 3.936300e+002
2.592882e+002, 3.926068e+002
2.597703e+002, 3.926217e+002
2.602524e+002, 3.911702e+002
2.607345e+002, 3.875010e+002
2.612166e+002, 3.837369e+002
2.616988e+002, 3.808973e+002
2.621809e+002, 3.790315e+002
2.626630e+002, 3.782706e+002
2.631451e+002, 3.792138e+002
2.636272e+002, 3.810199e+002
2.641093e+002, 3.813211e+002
2.645915e+002, 3.797541e+002
2.650736e+002, 3.775451e+002
2.655557e+002, 3.749778e+002
2.660378e+002, 3.717360e+002
2.665199e+002, 3.697646e+002
2.670020e+002, 3.695825e+002
2.674842e+002, 3.703123e+002
2.679663e+002, 3.700708e+002
2.684484e+002, 3.685741e+002
2.689305e+002, 3.669243e+002
2.694126e+002, 3.655272e+002
2.698947e+002, 3.643406e+002
2.703769e+002, 3.635489e+002
2.708590e+002, 3.631897e+002
2.713411e+002, 3.631472e+002
2.718232e+002, 3.632796e+002
2.723053e+002, 3.636180e+002
2.727874e+002, 3.639876e+002
2.732696e+002, 3.645536e+002
2.737517e+002, 3.653754e+002
2.742338e+002, 3.647477e+002
2.747159e+002, 3.621346e+002
2.751980e+002, 3.590848e+002
2.756801e+002, 3.580504e+002
2.761623e+002, 3.594407e+002
2.766444e+002, 3.603678e+002
2.771265e+002, 3.596232e+002
2.776086e+002, 3.573624e+002
2.780907e+002, 3.563656e+002
2.785728e+002, 3.569204e+002
2.790550e+002, 3.579158e+002
2.795371e+002, 3.583396e+002
2.800192e+002, 3.582233e+002
2.805013e+002, 3.571540e+002
2.809834e+002, 3.547437e+002
2.814655e+002, 3.512895e+002
2.819477e+002, 3.480356e+002
2.824298e+002, 3.448633e+002
2.829119e+002, 3.425892e+002
2.833940e+002, 3.426703e+002
2.838761e+002, 3.450507e+002
2.843582e+002, 3.462739e+002
2.848404e+002, 3.453368e+002
2.853225e+002, 3.428803e+002
2.858046e+002, 3.408055e+002
2.862867e+002, 3.391611e+002
2.867688e+002, 3.375379e+002
2.872509e+002, 3.355974e+002
2.877331e+002, 3.333695e+002
2.882152e+002, 3.310637e+002
2.886973e+002, 3.285581e+002
2.891794e+002, 3.261816e+002
2.896615e+002, 3.246459e+002
2.901436e+002, 3.239366e+002
2.906258e+002, 3.238446e+002
2.911079e+002, 3.247816e+002
2.915900e+002, 3.263672e+002
2.920721e+002, 3.268525e+002
2.925542e+002, 3.258717e+002
2.930363e+002, 3.241239e+002
2.935185e+002, 3.224846e+002
2.940006e+002, 3.209549e+002
2.944827e+002, 3.196661e+002
2.949648e+002, 3.185966e+002
2.954469e+002, 3.177973e+002
2.959290e+002, 3.176152e+002
2.964112e+002, 3.182144e+002
2.968933e+002, 3.187379e+002
2.973754e+002, 3.177292e+002
2.978575e+002, 3.156244e+002
2.983396e+002, 3.140193e+002
2.988217e+002, 3.138407e+002
2.993039e+002, 3.146330e+002
2.997860e+002, 3.159509e+002
3.002681e+002, 3.178616e+002
3.007502e+002, 3.192797e+002
3.012323e+002, 3.185120e+002
3.017144e+002, 3.163809e+002
3.021966e+002, 3.149007e+002
3.026787e+002, 3.154999e+002
3.031608e+002, 3.167830e+002
3.036429e+002, 3.167628e+002
3.041250e+002, 3.155172e+002
3.046071e+002, 3.145704e+002
3.050893e+002, 3.157225e+002
3.055714e+002, 3.178595e+002
3.060535e+002, 3.191125e+002
3.065356e+002, 3.182849e+002
3.070177e+002, 3.170240e+002
3.074998e+002, 3.169147e+002
3.079820e+002, 3.177687e+002
3.084641e+002, 3.185988e+002
3.089462e+002, 3.186148e+002
3.094283e+002, 3.183461e+002
3.099104e+002, 3.183765e+002
3.103925e+002, 3.189226e+002
3.108747e+002, 3.196518e+002
3.113568e+002, 3.205455e+002
3.118389e+002, 3.214753e+002
3.123210e+002, 3.220792e+002
3.128031e+002, 3.218109e+002
3.132852e+002, 3.213767e+002
3.137674e+002, 3.214064e+002
3.142495e+002, 3.222065e+002
3.147316e+002, 3.228323e+002
3.152137e+002, 3.222429e+002
3.156958e+002, 3.212250e+002
3.161779e+002, 3.211227e+002
3.166601e+002, 3.233232e+002
3.171422e+002, 3.258791e+002
3.176243e+002, 3.280736e+002
3.181064e+002, 3.299433e+002
3.185885e+002, 3.305512e+002
3.190706e+002, 3.274256e+002
3.195528e+002, 3.235983e+002
3.200349e+002, 3.225140e+002
3.205170e+002, 3.291082e+002
3.209991e+002, 3.347339e+002
3.214812e+002, 3.359365e+002
3.219633e+002, 3.325762e+002
3.224455e+002, 3.298159e+002
3.229276e+002, 3.289433e+002
3.234097e+002, 3.289330e+002
3.238918e+002, 3.290171e+002
3.243739e+002, 3.299083e+002
3.248560e+002, 3.299783e+002
3.253382e+002, 3.283615e+002
3.258203e+002, 3.253915e+002
3.263024e+002, 3.233680e+002
3.267845e+002, 3.227756e+002
3.272666e+002, 3.229092e+002
3.277487e+002, 3.234773e+002
3.282309e+002, 3.258609e+002
3.287130e+002, 3.267520e+002
3.291951e+002, 3.253898e+002
3.296772e+002, 3.225575e+002
3.301593e+002, 3.201517e+002
3.306414e+002, 3.176742e+002
3.311236e+002, 3.162407e+002
3.316057e+002, 3.165096e+002
3.320878e+002, 3.194566e+002
3.325699e+002, 3.211259e+002
3.330520e+002, 3.209870e+002
3.335341e+002, 3.199074e+002
3.340163e+002, 3.191735e+002
3.344984e+002, 3.191996e+002
3.349805e+002, 3.187430e+002
3.354626e+002, 3.171216e+002
3.359447e+002, 3.142266e+002
3.364268e+002, 3.130317e+002
3.369090e+002, 3.141390e+002
3.373911e+002, 3.160063e+002
3.378732e+002, 3.172763e+002
3.383553e+002, 3.180069e+002
3.388374e+002, 3.177477e+002
3.393195e+002, 3.158221e+002
3.398017e+002, 3.129175e+002
3.402838e+002, 3.125498e+002
3.407659e+002, 3.154131e+002
3.412480e+002, 3.183379e+002
3.417301e+002, 3.187750e+002
3.422122e+002, 3.165964e+002
3.426944e+002, 3.150430e+002
3.431765e+002, 3.143798e+002
3.436586e+002, 3.145932e+002
3.441407e+002, 3.162323e+002
3.446228e+002, 3.193412e+002
3.451049e+002, 3.217413e+002
3.455871e+002, 3.215475e+002
3.460692e+002, 3.193611e+002
3.465513e+002, 3.186607e+002
3.470334e+002, 3.197364e+002
3.475155e+002, 3.215251e+002
3.479977e+002, 3.231651e+002
3.484798e+002, 3.245276e+002
3.489619e+002, 3.247986e+002
3.494440e+002, 3.226006e+002
3.499261e+002, 3.194454e+002
3.504082e+002, 3.184795e+002
3.508904e+002, 3.196960e+002
3.513725e+002, 3.217654e+002
3.518546e+002, 3.244981e+002
3.523367e+002, 3.271919e+002
3.528188e+002, 3.282368e+002
3.533009e+002, 3.261950e+002
3.537831e+002, 3.235301e+002
3.542652e+002, 3.231202e+002
3.547473e+002, 3.245745e+002
3.552294e+002, 3.261112e+002
3.557115e+002, 3.269788e+002
3.561936e+002, 3.271809e+002
3.566758e+002, 3.266199e+002
3.571579e+002, 3.250866e+002
3.576400e+002, 3.233546e+002
3.581221e+002, 3.215848e+002
3.586042e+002, 3.200323e+002
3.590863e+002, 3.191598e+002
3.595685e+002, 3.201659e+002
3.600506e+002, 3.211924e+002
3.605327e+002, 3.209919e+002
3.610148e+002, 3.193599e+002
3.614969e+002, 3.174974e+002
3.619790e+002, 3.156382e+002
3.624612e+002, 3.139102e+002
3.629433e+002, 3.124242e+002
3.634254e+002, 3.111313e+002
3.639075e+002, 3.101512e+002
3.643896e+002, 3.097146e+002
3.648717e+002, 3.097492e+002
3.653539e+002, 3.095069e+002
3.658360e+002, 3.081609e+002
3.663181e+002, 3.069245e+002
3.668002e+002, 3.065130e+002
3.672823e+002, 3.081499e+002
3.677644e+002, 3.091436e+002
3.682466e+002, 3.091288e+002
3.687287e+002, 3.083328e+002
3.692108e+002, 3.074131e+002
3.696929e+002, 3.062019e+002
3.701750e+002, 3.050403e+002
3.706571e+002, 3.041644e+002
3.711393e+002, 3.038814e+002
3.716214e+002, 3.027477e+002
3.721035e+002, 2.998926e+002
3.725856e+002, 2.968172e+002
3.730677e+002, 2.956187e+002
3.735498e+002, 2.972163e+002
3.740320e+002, 2.987251e+002
3.745141e+002, 2.996711e+002
3.749962e+002, 3.000370e+002
3.754783e+002, 2.992943e+002
3.759604e+002, 2.971116e+002
3.764425e+002, 2.945842e+002
3.769247e+002, 2.923195e+002
3.774068e+002, 2.902084e+002
3.778889e+002, 2.895595e+002
3.783710e+002, 2.910953e+002
3.788531e+002, 2.936437e+002
3.793352e+002, 2.941079e+002
3.798174e+002, 2.923055e+002
3.802995e+002, 2.905414e+002
3.807816e+002, 2.903689e+002
3.812637e+002, 2.915045e+002
3.817458e+002, 2.919712e+002
3.822279e+002, 2.915558e+002
3.827101e+002, 2.909880e+002
3.831922e+002, 2.913145e+002
3.836743e+002, 2.923456e+002
3.841564e+002, 2.931939e+002
3.846385e+002, 2.936353e+002
3.851206e+002, 2.936211e+002
3.856028e+002, 2.928190e+002
3.860849e+002, 2.912749e+002
3.865670e+002, 2.898583e+002
3.870491e+002, 2.890447e+002
3.875312e+002, 2.888520e+002
3.880133e+002, 2.895124e+002
3.884955e+002, 2.918034e+002
3.889776e+002, 2.936769e+002
3.894597e+002, 2.924951e+002
3.899418e+002, 2.892686e+002
3.904239e+002, 2.868788e+002
3.909060e+002, 2.874865e+002
3.913882e+002, 2.891097e+002
3.918703e+002, 2.903723e+002
3.923524e+002, 2.911544e+002
3.928345e+002, 2.913849e+002
3.933166e+002, 2.905366e+002
3.937987e+002, 2.892609e+002
3.942809e+002, 2.883923e+002
3.947630e+002, 2.885515e+002
3.952451e+002, 2.887780e+002
3.957272e+002, 2.887198e+002
3.962093e+002, 2.883862e+002
3.966914e+002, 2.881357e+002
3.971736e+002, 2.879451e+002
3.976557e+002, 2.879197e+002
3.981378e+002, 2.881225e+002
3.986199e+002, 2.882873e+002
3.991020e+002, 2.890320e+002
