##NAMES=Olsacherite
##RRUFFID=R140741
##IDEAL CHEMISTRY=Pb^2+^_2_(Se^6+^O_4_)(S^6+^O_4_)
##LOCALITY=Virgen De Surumi mine, Pakajake Canyon, Chayanta Province, Potos√≠ Department, Bolivia
##OWNER=RRUFF
##SOURCE=Rock Currier
##DESCRIPTION=Sprays of colorless prismatic crystals. This sample was originally labeled as mandarinoite.
##STATUS=The identification of this mineral has been confirmed by X-ray diffraction.
##URL=rruff.info/R140741
8.758203e+001, 1.619406e+003
8.806415e+001, 1.616661e+003
8.854626e+001, 1.616273e+003
8.902838e+001, 1.614455e+003
8.951050e+001, 1.617608e+003
8.999261e+001, 1.628541e+003
9.047473e+001, 1.647189e+003
9.095685e+001, 1.671722e+003
9.143896e+001, 1.701265e+003
9.192108e+001, 1.736300e+003
9.240320e+001, 1.773905e+003
9.288531e+001, 1.797616e+003
9.336743e+001, 1.788765e+003
9.384955e+001, 1.747385e+003
9.433167e+001, 1.698550e+003
9.481378e+001, 1.643649e+003
9.529590e+001, 1.595213e+003
9.577802e+001, 1.552679e+003
9.626013e+001, 1.514457e+003
9.674225e+001, 1.478872e+003
9.722437e+001, 1.445391e+003
9.770648e+001, 1.415767e+003
9.818860e+001, 1.389621e+003
9.867072e+001, 1.366959e+003
9.915283e+001, 1.348069e+003
9.963495e+001, 1.332594e+003
1.001171e+002, 1.319423e+003
1.005992e+002, 1.307528e+003
1.010813e+002, 1.297140e+003
1.015634e+002, 1.286758e+003
1.020455e+002, 1.274455e+003
1.025277e+002, 1.262292e+003
1.030098e+002, 1.251774e+003
1.034919e+002, 1.243429e+003
1.039740e+002, 1.236859e+003
1.044561e+002, 1.231135e+003
1.049382e+002, 1.228635e+003
1.054204e+002, 1.224022e+003
1.059025e+002, 1.215416e+003
1.063846e+002, 1.204286e+003
1.068667e+002, 1.193016e+003
1.073488e+002, 1.182830e+003
1.078309e+002, 1.173828e+003
1.083131e+002, 1.166373e+003
1.087952e+002, 1.161206e+003
1.092773e+002, 1.156581e+003
1.097594e+002, 1.151959e+003
1.102415e+002, 1.147245e+003
1.107236e+002, 1.141784e+003
1.112058e+002, 1.134853e+003
1.116879e+002, 1.126680e+003
1.121700e+002, 1.118022e+003
1.126521e+002, 1.108456e+003
1.131342e+002, 1.098644e+003
1.136163e+002, 1.089775e+003
1.140985e+002, 1.082233e+003
1.145806e+002, 1.075076e+003
1.150627e+002, 1.067144e+003
1.155448e+002, 1.058976e+003
1.160269e+002, 1.051846e+003
1.165090e+002, 1.047190e+003
1.169912e+002, 1.044953e+003
1.174733e+002, 1.041856e+003
1.179554e+002, 1.036164e+003
1.184375e+002, 1.030965e+003
1.189196e+002, 1.028022e+003
1.194017e+002, 1.027029e+003
1.198839e+002, 1.026242e+003
1.203660e+002, 1.023471e+003
1.208481e+002, 1.017529e+003
1.213302e+002, 1.012444e+003
1.218123e+002, 1.008065e+003
1.222944e+002, 1.004375e+003
1.227766e+002, 1.001638e+003
1.232587e+002, 9.998246e+002
1.237408e+002, 9.982805e+002
1.242229e+002, 9.957876e+002
1.247050e+002, 9.909604e+002
1.251871e+002, 9.869271e+002
1.256693e+002, 9.845507e+002
1.261514e+002, 9.827723e+002
1.266335e+002, 9.803489e+002
1.271156e+002, 9.767588e+002
1.275977e+002, 9.721246e+002
1.280798e+002, 9.665280e+002
1.285620e+002, 9.584641e+002
1.290441e+002, 9.518400e+002
1.295262e+002, 9.493374e+002
1.300083e+002, 9.500212e+002
1.304904e+002, 9.500006e+002
1.309725e+002, 9.473094e+002
1.314547e+002, 9.425013e+002
1.319368e+002, 9.371766e+002
1.324189e+002, 9.309738e+002
1.329010e+002, 9.248055e+002
1.333831e+002, 9.195682e+002
1.338652e+002, 9.153485e+002
1.343474e+002, 9.116629e+002
1.348295e+002, 9.093249e+002
1.353116e+002, 9.071022e+002
1.357937e+002, 9.033483e+002
1.362758e+002, 8.967645e+002
1.367579e+002, 8.887341e+002
1.372401e+002, 8.831174e+002
1.377222e+002, 8.818276e+002
1.382043e+002, 8.800836e+002
1.386864e+002, 8.760150e+002
1.391685e+002, 8.705546e+002
1.396507e+002, 8.651981e+002
1.401328e+002, 8.611867e+002
1.406149e+002, 8.584030e+002
1.410970e+002, 8.537256e+002
1.415791e+002, 8.440964e+002
1.420612e+002, 8.353605e+002
1.425434e+002, 8.295573e+002
1.430255e+002, 8.261116e+002
1.435076e+002, 8.231437e+002
1.439897e+002, 8.189059e+002
1.444718e+002, 8.130548e+002
1.449539e+002, 8.078878e+002
1.454361e+002, 8.038319e+002
1.459182e+002, 7.999359e+002
1.464003e+002, 7.958759e+002
1.468824e+002, 7.915316e+002
1.473645e+002, 7.866797e+002
1.478466e+002, 7.809581e+002
1.483288e+002, 7.739091e+002
1.488109e+002, 7.674829e+002
1.492930e+002, 7.612811e+002
1.497751e+002, 7.558717e+002
1.502572e+002, 7.524479e+002
1.507393e+002, 7.515122e+002
1.512215e+002, 7.509326e+002
1.517036e+002, 7.472115e+002
1.521857e+002, 7.405421e+002
1.526678e+002, 7.340802e+002
1.531499e+002, 7.289485e+002
1.536320e+002, 7.247807e+002
1.541142e+002, 7.206655e+002
1.545963e+002, 7.162703e+002
1.550784e+002, 7.121270e+002
1.555605e+002, 7.089918e+002
1.560426e+002, 7.068795e+002
1.565247e+002, 7.044155e+002
1.570069e+002, 7.004634e+002
1.574890e+002, 6.950536e+002
1.579711e+002, 6.895836e+002
1.584532e+002, 6.829767e+002
1.589353e+002, 6.775519e+002
1.594174e+002, 6.756050e+002
1.598996e+002, 6.773320e+002
1.603817e+002, 6.797936e+002
1.608638e+002, 6.795227e+002
1.613459e+002, 6.759247e+002
1.618280e+002, 6.714742e+002
1.623102e+002, 6.653564e+002
1.627923e+002, 6.593149e+002
1.632744e+002, 6.547574e+002
1.637565e+002, 6.520187e+002
1.642386e+002, 6.501695e+002
1.647207e+002, 6.473832e+002
1.652029e+002, 6.429229e+002
1.656850e+002, 6.386841e+002
1.661671e+002, 6.339689e+002
1.666492e+002, 6.298972e+002
1.671313e+002, 6.279943e+002
1.676134e+002, 6.289099e+002
1.680956e+002, 6.312578e+002
1.685777e+002, 6.309821e+002
1.690598e+002, 6.242880e+002
1.695419e+002, 6.192014e+002
1.700240e+002, 6.177197e+002
1.705061e+002, 6.178917e+002
1.709883e+002, 6.167437e+002
1.714704e+002, 6.126347e+002
1.719525e+002, 6.065276e+002
1.724346e+002, 6.025991e+002
1.729167e+002, 6.021255e+002
1.733988e+002, 6.018317e+002
1.738810e+002, 6.010613e+002
1.743631e+002, 5.997755e+002
1.748452e+002, 5.977444e+002
1.753273e+002, 5.945865e+002
1.758094e+002, 5.907550e+002
1.762915e+002, 5.879350e+002
1.767737e+002, 5.864908e+002
1.772558e+002, 5.855364e+002
1.777379e+002, 5.847619e+002
1.782200e+002, 5.841339e+002
1.787021e+002, 5.832388e+002
1.791842e+002, 5.818022e+002
1.796664e+002, 5.799196e+002
1.801485e+002, 5.778315e+002
1.806306e+002, 5.755446e+002
1.811127e+002, 5.730709e+002
1.815948e+002, 5.701943e+002
1.820769e+002, 5.667295e+002
1.825591e+002, 5.639027e+002
1.830412e+002, 5.630297e+002
1.835233e+002, 5.629663e+002
1.840054e+002, 5.625028e+002
1.844875e+002, 5.610452e+002
1.849696e+002, 5.592278e+002
1.854518e+002, 5.584048e+002
1.859339e+002, 5.592579e+002
1.864160e+002, 5.595350e+002
1.868981e+002, 5.583089e+002
1.873802e+002, 5.561700e+002
1.878623e+002, 5.536855e+002
1.883445e+002, 5.510690e+002
1.888266e+002, 5.483835e+002
1.893087e+002, 5.458735e+002
1.897908e+002, 5.434608e+002
1.902729e+002, 5.413563e+002
1.907550e+002, 5.396412e+002
1.912372e+002, 5.382204e+002
1.917193e+002, 5.369279e+002
1.922014e+002, 5.356237e+002
1.926835e+002, 5.344061e+002
1.931656e+002, 5.339687e+002
1.936477e+002, 5.371688e+002
1.941299e+002, 5.381555e+002
1.946120e+002, 5.339679e+002
1.950941e+002, 5.270524e+002
1.955762e+002, 5.214674e+002
1.960583e+002, 5.200356e+002
1.965404e+002, 5.224851e+002
1.970226e+002, 5.240049e+002
1.975047e+002, 5.240926e+002
1.979868e+002, 5.238538e+002
1.984689e+002, 5.235121e+002
1.989510e+002, 5.230675e+002
1.994331e+002, 5.223959e+002
1.999153e+002, 5.213419e+002
2.003974e+002, 5.199330e+002
2.008795e+002, 5.191808e+002
2.013616e+002, 5.195765e+002
2.018437e+002, 5.199938e+002
2.023258e+002, 5.205209e+002
2.028080e+002, 5.208173e+002
2.032901e+002, 5.196381e+002
2.037722e+002, 5.155225e+002
2.042543e+002, 5.088821e+002
2.047364e+002, 5.049841e+002
2.052185e+002, 5.062505e+002
2.057007e+002, 5.079977e+002
2.061828e+002, 5.067655e+002
2.066649e+002, 5.028132e+002
2.071470e+002, 4.996227e+002
2.076291e+002, 5.003846e+002
2.081112e+002, 5.040326e+002
2.085934e+002, 5.051263e+002
2.090755e+002, 5.012016e+002
2.095576e+002, 4.961175e+002
2.100397e+002, 4.932233e+002
2.105218e+002, 4.926029e+002
2.110039e+002, 4.926494e+002
2.114861e+002, 4.927847e+002
2.119682e+002, 4.927800e+002
2.124503e+002, 4.921427e+002
2.129324e+002, 4.905326e+002
2.134145e+002, 4.884190e+002
2.138967e+002, 4.862147e+002
2.143788e+002, 4.838216e+002
2.148609e+002, 4.817770e+002
2.153430e+002, 4.804832e+002
2.158251e+002, 4.796982e+002
2.163072e+002, 4.793040e+002
2.167894e+002, 4.796623e+002
2.172715e+002, 4.800173e+002
2.177536e+002, 4.788967e+002
2.182357e+002, 4.757945e+002
2.187178e+002, 4.725941e+002
2.191999e+002, 4.699177e+002
2.196821e+002, 4.676466e+002
2.201642e+002, 4.657542e+002
2.206463e+002, 4.643266e+002
2.211284e+002, 4.631344e+002
2.216105e+002, 4.615793e+002
2.220926e+002, 4.593475e+002
2.225748e+002, 4.574132e+002
2.230569e+002, 4.564147e+002
2.235390e+002, 4.557196e+002
2.240211e+002, 4.546056e+002
2.245032e+002, 4.527126e+002
2.249853e+002, 4.502851e+002
2.254675e+002, 4.478250e+002
2.259496e+002, 4.446690e+002
2.264317e+002, 4.427157e+002
2.269138e+002, 4.435847e+002
2.273959e+002, 4.452476e+002
2.278780e+002, 4.451661e+002
2.283602e+002, 4.419753e+002
2.288423e+002, 4.370231e+002
2.293244e+002, 4.348267e+002
2.298065e+002, 4.388029e+002
2.302886e+002, 4.408879e+002
2.307707e+002, 4.387945e+002
2.312529e+002, 4.348320e+002
2.317350e+002, 4.316161e+002
2.322171e+002, 4.304066e+002
2.326992e+002, 4.305854e+002
2.331813e+002, 4.301806e+002
2.336634e+002, 4.287664e+002
2.341456e+002, 4.271835e+002
2.346277e+002, 4.253312e+002
2.351098e+002, 4.234001e+002
2.355919e+002, 4.215893e+002
2.360740e+002, 4.199907e+002
2.365561e+002, 4.185713e+002
2.370383e+002, 4.172306e+002
2.375204e+002, 4.161034e+002
2.380025e+002, 4.149182e+002
2.384846e+002, 4.138793e+002
2.389667e+002, 4.127092e+002
2.394488e+002, 4.110181e+002
2.399310e+002, 4.086263e+002
2.404131e+002, 4.057869e+002
2.408952e+002, 4.031133e+002
2.413773e+002, 4.001638e+002
2.418594e+002, 3.979787e+002
2.423415e+002, 3.971268e+002
2.428237e+002, 3.969584e+002
2.433058e+002, 3.968194e+002
2.437879e+002, 3.965000e+002
2.442700e+002, 3.957817e+002
2.447521e+002, 3.940887e+002
2.452342e+002, 3.910380e+002
2.457164e+002, 3.878580e+002
2.461985e+002, 3.840074e+002
2.466806e+002, 3.803244e+002
2.471627e+002, 3.783848e+002
2.476448e+002, 3.788959e+002
2.481269e+002, 3.801096e+002
2.486091e+002, 3.786474e+002
2.490912e+002, 3.736887e+002
2.495733e+002, 3.694411e+002
2.500554e+002, 3.670712e+002
2.505375e+002, 3.657855e+002
2.510196e+002, 3.644730e+002
2.515018e+002, 3.628595e+002
2.519839e+002, 3.610973e+002
2.524660e+002, 3.591898e+002
2.529481e+002, 3.570108e+002
2.534302e+002, 3.556926e+002
2.539123e+002, 3.564661e+002
2.543945e+002, 3.580134e+002
2.548766e+002, 3.583444e+002
2.553587e+002, 3.570019e+002
2.558408e+002, 3.546140e+002
2.563229e+002, 3.511402e+002
2.568051e+002, 3.467496e+002
2.572872e+002, 3.436498e+002
2.577693e+002, 3.430516e+002
2.582514e+002, 3.439509e+002
2.587335e+002, 3.448798e+002
2.592156e+002, 3.457202e+002
2.596978e+002, 3.462903e+002
2.601799e+002, 3.465365e+002
2.606620e+002, 3.464312e+002
2.611441e+002, 3.455518e+002
2.616262e+002, 3.428851e+002
2.621083e+002, 3.396322e+002
2.625905e+002, 3.378829e+002
2.630726e+002, 3.380877e+002
2.635547e+002, 3.386443e+002
2.640368e+002, 3.384021e+002
2.645189e+002, 3.376036e+002
2.650010e+002, 3.366386e+002
2.654832e+002, 3.357173e+002
2.659653e+002, 3.346741e+002
2.664474e+002, 3.331086e+002
2.669295e+002, 3.308449e+002
2.674116e+002, 3.287411e+002
2.678937e+002, 3.275741e+002
2.683759e+002, 3.268666e+002
2.688580e+002, 3.259510e+002
2.693401e+002, 3.244565e+002
2.698222e+002, 3.228210e+002
2.703043e+002, 3.217530e+002
2.707864e+002, 3.213806e+002
2.712686e+002, 3.210245e+002
2.717507e+002, 3.204255e+002
2.722328e+002, 3.196328e+002
2.727149e+002, 3.185725e+002
2.731970e+002, 3.170431e+002
2.736791e+002, 3.156115e+002
2.741613e+002, 3.153549e+002
2.746434e+002, 3.166328e+002
2.751255e+002, 3.172076e+002
2.756076e+002, 3.154892e+002
2.760897e+002, 3.130398e+002
2.765718e+002, 3.108902e+002
2.770540e+002, 3.092240e+002
2.775361e+002, 3.081594e+002
2.780182e+002, 3.079288e+002
2.785003e+002, 3.086189e+002
2.789824e+002, 3.095724e+002
2.794645e+002, 3.114016e+002
2.799467e+002, 3.129215e+002
2.804288e+002, 3.131375e+002
2.809109e+002, 3.119200e+002
2.813930e+002, 3.102391e+002
2.818751e+002, 3.089769e+002
2.823572e+002, 3.081481e+002
2.828394e+002, 3.075849e+002
2.833215e+002, 3.075024e+002
2.838036e+002, 3.075077e+002
2.842857e+002, 3.072863e+002
2.847678e+002, 3.068763e+002
2.852499e+002, 3.066369e+002
2.857321e+002, 3.070937e+002
2.862142e+002, 3.082723e+002
2.866963e+002, 3.088960e+002
2.871784e+002, 3.086229e+002
2.876605e+002, 3.079960e+002
2.881426e+002, 3.070833e+002
2.886248e+002, 3.060067e+002
2.891069e+002, 3.050595e+002
2.895890e+002, 3.043456e+002
2.900711e+002, 3.038908e+002
2.905532e+002, 3.041479e+002
2.910353e+002, 3.058849e+002
2.915175e+002, 3.073998e+002
2.919996e+002, 3.080762e+002
2.924817e+002, 3.080695e+002
2.929638e+002, 3.076990e+002
2.934459e+002, 3.071520e+002
2.939280e+002, 3.063973e+002
2.944102e+002, 3.051971e+002
2.948923e+002, 3.027869e+002
2.953744e+002, 3.011933e+002
2.958565e+002, 3.017649e+002
2.963386e+002, 3.031775e+002
2.968207e+002, 3.035711e+002
2.973029e+002, 3.018797e+002
2.977850e+002, 2.991660e+002
2.982671e+002, 2.982033e+002
2.987492e+002, 3.000214e+002
2.992313e+002, 3.015753e+002
2.997134e+002, 3.021744e+002
3.001956e+002, 3.022357e+002
3.006777e+002, 3.020130e+002
3.011598e+002, 3.015870e+002
3.016419e+002, 3.011617e+002
3.021240e+002, 3.011954e+002
3.026061e+002, 3.020281e+002
3.030883e+002, 3.023355e+002
3.035704e+002, 3.016793e+002
3.040525e+002, 3.006324e+002
3.045346e+002, 2.992733e+002
3.050167e+002, 2.977213e+002
3.054988e+002, 2.965527e+002
3.059810e+002, 2.967513e+002
3.064631e+002, 2.987863e+002
3.069452e+002, 2.999985e+002
3.074273e+002, 2.990181e+002
3.079094e+002, 2.981343e+002
3.083915e+002, 2.987041e+002
3.088737e+002, 3.005282e+002
3.093558e+002, 3.023281e+002
3.098379e+002, 3.028560e+002
3.103200e+002, 3.020480e+002
3.108021e+002, 3.012716e+002
3.112842e+002, 3.000114e+002
3.117664e+002, 2.993526e+002
3.122485e+002, 3.001054e+002
3.127306e+002, 3.017621e+002
3.132127e+002, 3.032606e+002
3.136948e+002, 3.039155e+002
3.141769e+002, 3.037934e+002
3.146591e+002, 3.032238e+002
3.151412e+002, 3.015671e+002
3.156233e+002, 3.003713e+002
3.161054e+002, 3.001849e+002
3.165875e+002, 3.006424e+002
3.170696e+002, 3.013018e+002
3.175518e+002, 3.019825e+002
3.180339e+002, 3.026494e+002
3.185160e+002, 3.032620e+002
3.189981e+002, 3.040440e+002
3.194802e+002, 3.042780e+002
3.199623e+002, 3.030990e+002
3.204445e+002, 3.017713e+002
3.209266e+002, 3.016679e+002
3.214087e+002, 3.031916e+002
3.218908e+002, 3.051360e+002
3.223729e+002, 3.053988e+002
3.228550e+002, 3.031829e+002
3.233372e+002, 3.021278e+002
3.238193e+002, 3.039797e+002
3.243014e+002, 3.061815e+002
3.247835e+002, 3.071988e+002
3.252656e+002, 3.069176e+002
3.257477e+002, 3.063314e+002
3.262299e+002, 3.065381e+002
3.267120e+002, 3.076519e+002
3.271941e+002, 3.082975e+002
3.276762e+002, 3.078059e+002
3.281583e+002, 3.074246e+002
3.286404e+002, 3.078203e+002
3.291226e+002, 3.087960e+002
3.296047e+002, 3.097295e+002
3.300868e+002, 3.101521e+002
3.305689e+002, 3.101426e+002
3.310510e+002, 3.102147e+002
3.315331e+002, 3.102821e+002
3.320153e+002, 3.105900e+002
3.324974e+002, 3.114391e+002
3.329795e+002, 3.125031e+002
3.334616e+002, 3.133279e+002
3.339437e+002, 3.137129e+002
3.344258e+002, 3.137265e+002
3.349080e+002, 3.132858e+002
3.353901e+002, 3.118248e+002
3.358722e+002, 3.114377e+002
3.363543e+002, 3.138580e+002
3.368365e+002, 3.169736e+002
3.373186e+002, 3.187404e+002
3.378007e+002, 3.185320e+002
3.382828e+002, 3.180047e+002
3.387649e+002, 3.195286e+002
3.392470e+002, 3.234753e+002
3.397292e+002, 3.266157e+002
3.402113e+002, 3.273582e+002
3.406934e+002, 3.278262e+002
3.411755e+002, 3.295507e+002
3.416576e+002, 3.324923e+002
3.421397e+002, 3.353169e+002
3.426219e+002, 3.365804e+002
3.431040e+002, 3.364885e+002
3.435861e+002, 3.372888e+002
3.440682e+002, 3.393079e+002
3.445503e+002, 3.420604e+002
3.450324e+002, 3.455344e+002
3.455146e+002, 3.494246e+002
3.459967e+002, 3.529549e+002
3.464788e+002, 3.553531e+002
3.469609e+002, 3.572171e+002
3.474430e+002, 3.601918e+002
3.479251e+002, 3.648087e+002
3.484073e+002, 3.690662e+002
3.488894e+002, 3.714435e+002
3.493715e+002, 3.730770e+002
3.498536e+002, 3.753056e+002
3.503357e+002, 3.785308e+002
3.508178e+002, 3.824096e+002
3.513000e+002, 3.867664e+002
3.517821e+002, 3.916429e+002
3.522642e+002, 3.961906e+002
3.527463e+002, 3.998184e+002
3.532284e+002, 4.032489e+002
3.537105e+002, 4.072318e+002
3.541927e+002, 4.118436e+002
3.546748e+002, 4.166884e+002
3.551569e+002, 4.218863e+002
3.556390e+002, 4.272102e+002
3.561211e+002, 4.315054e+002
3.566032e+002, 4.340286e+002
3.570854e+002, 4.364106e+002
3.575675e+002, 4.404517e+002
3.580496e+002, 4.458239e+002
3.585317e+002, 4.508214e+002
3.590138e+002, 4.539264e+002
3.594959e+002, 4.565716e+002
3.599781e+002, 4.617065e+002
3.604602e+002, 4.699197e+002
3.609423e+002, 4.775263e+002
3.614244e+002, 4.814549e+002
3.619065e+002, 4.827826e+002
3.623886e+002, 4.842185e+002
3.628708e+002, 4.858308e+002
3.633529e+002, 4.879171e+002
3.638350e+002, 4.909850e+002
3.643171e+002, 4.948791e+002
3.647992e+002, 4.986150e+002
3.652813e+002, 5.017862e+002
3.657635e+002, 5.044819e+002
3.662456e+002, 5.069403e+002
3.667277e+002, 5.091135e+002
3.672098e+002, 5.111701e+002
3.676919e+002, 5.135223e+002
3.681740e+002, 5.157430e+002
3.686562e+002, 5.168062e+002
3.691383e+002, 5.163038e+002
3.696204e+002, 5.153913e+002
3.701025e+002, 5.154547e+002
3.705846e+002, 5.165297e+002
3.710667e+002, 5.178795e+002
3.715489e+002, 5.203041e+002
3.720310e+002, 5.223928e+002
3.725131e+002, 5.225715e+002
3.729952e+002, 5.208846e+002
3.734773e+002, 5.187996e+002
3.739594e+002, 5.172064e+002
3.744416e+002, 5.161730e+002
3.749237e+002, 5.160630e+002
3.754058e+002, 5.185699e+002
3.758879e+002, 5.201086e+002
3.763700e+002, 5.181746e+002
3.768521e+002, 5.142841e+002
3.773343e+002, 5.117057e+002
3.778164e+002, 5.119728e+002
3.782985e+002, 5.140170e+002
3.787806e+002, 5.154510e+002
3.792627e+002, 5.170294e+002
3.797448e+002, 5.166454e+002
3.802270e+002, 5.120873e+002
3.807091e+002, 5.066452e+002
3.811912e+002, 5.036520e+002
3.816733e+002, 5.036265e+002
3.821554e+002, 5.045534e+002
3.826375e+002, 5.041855e+002
3.831197e+002, 5.022214e+002
3.836018e+002, 5.003966e+002
3.840839e+002, 4.994211e+002
3.845660e+002, 4.978900e+002
3.850481e+002, 4.945875e+002
3.855302e+002, 4.901650e+002
3.860124e+002, 4.862896e+002
3.864945e+002, 4.840914e+002
3.869766e+002, 4.832397e+002
3.874587e+002, 4.819544e+002
3.879408e+002, 4.803240e+002
3.884229e+002, 4.780640e+002
3.889051e+002, 4.746811e+002
3.893872e+002, 4.708919e+002
3.898693e+002, 4.674413e+002
3.903514e+002, 4.645729e+002
3.908335e+002, 4.619139e+002
3.913156e+002, 4.588463e+002
3.917978e+002, 4.550999e+002
3.922799e+002, 4.516747e+002
3.927620e+002, 4.490751e+002
3.932441e+002, 4.463366e+002
3.937262e+002, 4.425711e+002
3.942083e+002, 4.380880e+002
3.946905e+002, 4.340634e+002
3.951726e+002, 4.314161e+002
3.956547e+002, 4.300673e+002
3.961368e+002, 4.292904e+002
3.966189e+002, 4.297633e+002
3.971010e+002, 4.298243e+002
3.975832e+002, 4.292876e+002
3.980653e+002, 4.279855e+002
3.985474e+002, 4.255843e+002
3.990295e+002, 4.218431e+002
3.995116e+002, 4.174182e+002
3.999937e+002, 4.129913e+002
4.004759e+002, 4.082711e+002
4.009580e+002, 4.051283e+002
4.014401e+002, 4.060722e+002
