##NAMES=Piemontite
##RRUFFID=R150096
##IDEAL CHEMISTRY=Ca_2_(Al_2_Mn^3+^)(Si_2_O_7_)(SiO_4_)O(OH)
##LOCALITY=Ash Canyon, Huachuca Mountains, Cochise County, Arizona, USA
##OWNER=RRUFF
##SOURCE=Marcus Origlieri
##DESCRIPTION=Red prismatic crystals, associated with yellow tabular or massive axinite-(Mn), on white quartz matrix
##STATUS=The identification of this mineral has been confirmed only by single crystal X-ray diffraction.
##URL=rruff.info/R150096
8.813672e+001, 3.095114e+002
8.861884e+001, 3.129980e+002
8.910095e+001, 3.167256e+002
8.958307e+001, 3.214950e+002
9.006519e+001, 3.276520e+002
9.054730e+001, 3.355287e+002
9.102942e+001, 3.469329e+002
9.151154e+001, 3.567689e+002
9.199365e+001, 3.579678e+002
9.247577e+001, 3.518986e+002
9.295789e+001, 3.453195e+002
9.344000e+001, 3.432610e+002
9.392212e+001, 3.441427e+002
9.440424e+001, 3.440787e+002
9.488635e+001, 3.425944e+002
9.536847e+001, 3.404222e+002
9.585059e+001, 3.388423e+002
9.633270e+001, 3.377945e+002
9.681482e+001, 3.373539e+002
9.729694e+001, 3.371297e+002
9.777905e+001, 3.371281e+002
9.826117e+001, 3.393260e+002
9.874329e+001, 3.453824e+002
9.922540e+001, 3.543976e+002
9.970752e+001, 3.596425e+002
1.001896e+002, 3.603156e+002
1.006718e+002, 3.589142e+002
1.011539e+002, 3.583695e+002
1.016360e+002, 3.587712e+002
1.021181e+002, 3.596635e+002
1.026002e+002, 3.608748e+002
1.030823e+002, 3.623598e+002
1.035645e+002, 3.643403e+002
1.040466e+002, 3.665067e+002
1.045287e+002, 3.693641e+002
1.050108e+002, 3.740801e+002
1.054929e+002, 3.816419e+002
1.059750e+002, 3.896046e+002
1.064572e+002, 3.974037e+002
1.069393e+002, 4.077030e+002
1.074214e+002, 4.130753e+002
1.079035e+002, 4.112088e+002
1.083856e+002, 4.041847e+002
1.088677e+002, 3.993316e+002
1.093499e+002, 3.978248e+002
1.098320e+002, 3.975620e+002
1.103141e+002, 3.976460e+002
1.107962e+002, 3.975710e+002
1.112783e+002, 3.983974e+002
1.117604e+002, 4.002541e+002
1.122426e+002, 4.031151e+002
1.127247e+002, 4.067101e+002
1.132068e+002, 4.111279e+002
1.136889e+002, 4.162012e+002
1.141710e+002, 4.217733e+002
1.146531e+002, 4.294245e+002
1.151353e+002, 4.360237e+002
1.156174e+002, 4.401948e+002
1.160995e+002, 4.419094e+002
1.165816e+002, 4.439597e+002
1.170637e+002, 4.485787e+002
1.175458e+002, 4.536731e+002
1.180280e+002, 4.570213e+002
1.185101e+002, 4.556122e+002
1.189922e+002, 4.536768e+002
1.194743e+002, 4.536819e+002
1.199564e+002, 4.558879e+002
1.204385e+002, 4.590505e+002
1.209207e+002, 4.617466e+002
1.214028e+002, 4.649056e+002
1.218849e+002, 4.701402e+002
1.223670e+002, 4.820122e+002
1.228491e+002, 4.947499e+002
1.233312e+002, 5.017025e+002
1.238134e+002, 5.012330e+002
1.242955e+002, 4.984634e+002
1.247776e+002, 4.972801e+002
1.252597e+002, 4.975650e+002
1.257418e+002, 4.988886e+002
1.262239e+002, 5.006900e+002
1.267061e+002, 5.034474e+002
1.271882e+002, 5.083327e+002
1.276703e+002, 5.163030e+002
1.281524e+002, 5.250682e+002
1.286345e+002, 5.310211e+002
1.291166e+002, 5.343923e+002
1.295988e+002, 5.377150e+002
1.300809e+002, 5.434217e+002
1.305630e+002, 5.508323e+002
1.310451e+002, 5.570215e+002
1.315272e+002, 5.610403e+002
1.320093e+002, 5.636689e+002
1.324915e+002, 5.666015e+002
1.329736e+002, 5.698253e+002
1.334557e+002, 5.734160e+002
1.339378e+002, 5.776198e+002
1.344199e+002, 5.824233e+002
1.349020e+002, 5.868871e+002
1.353842e+002, 5.908576e+002
1.358663e+002, 5.942337e+002
1.363484e+002, 5.966522e+002
1.368305e+002, 5.977072e+002
1.373126e+002, 5.988763e+002
1.377947e+002, 6.024767e+002
1.382769e+002, 6.093913e+002
1.387590e+002, 6.142037e+002
1.392411e+002, 6.152825e+002
1.397232e+002, 6.125660e+002
1.402053e+002, 6.081545e+002
1.406874e+002, 6.013563e+002
1.411696e+002, 5.936981e+002
1.416517e+002, 5.872717e+002
1.421338e+002, 5.822947e+002
1.426159e+002, 5.780379e+002
1.430980e+002, 5.742806e+002
1.435801e+002, 5.710566e+002
1.440623e+002, 5.684244e+002
1.445444e+002, 5.664121e+002
1.450265e+002, 5.650165e+002
1.455086e+002, 5.643839e+002
1.459907e+002, 5.655471e+002
1.464728e+002, 5.661278e+002
1.469550e+002, 5.652123e+002
1.474371e+002, 5.618478e+002
1.479192e+002, 5.591984e+002
1.484013e+002, 5.575925e+002
1.488834e+002, 5.566713e+002
1.493655e+002, 5.556229e+002
1.498477e+002, 5.539713e+002
1.503298e+002, 5.526026e+002
1.508119e+002, 5.518748e+002
1.512940e+002, 5.523871e+002
1.517761e+002, 5.526406e+002
1.522583e+002, 5.521169e+002
1.527404e+002, 5.512354e+002
1.532225e+002, 5.511976e+002
1.537046e+002, 5.533468e+002
1.541867e+002, 5.554671e+002
1.546688e+002, 5.565424e+002
1.551510e+002, 5.560136e+002
1.556331e+002, 5.550062e+002
1.561152e+002, 5.533847e+002
1.565973e+002, 5.513268e+002
1.570794e+002, 5.495627e+002
1.575615e+002, 5.483583e+002
1.580437e+002, 5.474169e+002
1.585258e+002, 5.465491e+002
1.590079e+002, 5.454553e+002
1.594900e+002, 5.447023e+002
1.599721e+002, 5.444064e+002
1.604542e+002, 5.445685e+002
1.609364e+002, 5.451912e+002
1.614185e+002, 5.466546e+002
1.619006e+002, 5.483971e+002
1.623827e+002, 5.499661e+002
1.628648e+002, 5.516915e+002
1.633469e+002, 5.528076e+002
1.638291e+002, 5.527084e+002
1.643112e+002, 5.514969e+002
1.647933e+002, 5.502357e+002
1.652754e+002, 5.492863e+002
1.657575e+002, 5.486077e+002
1.662396e+002, 5.481570e+002
1.667218e+002, 5.476518e+002
1.672039e+002, 5.475671e+002
1.676860e+002, 5.483713e+002
1.681681e+002, 5.500411e+002
1.686502e+002, 5.518747e+002
1.691323e+002, 5.533935e+002
1.696145e+002, 5.547986e+002
1.700966e+002, 5.563544e+002
1.705787e+002, 5.591995e+002
1.710608e+002, 5.616234e+002
1.715429e+002, 5.616452e+002
1.720250e+002, 5.591280e+002
1.725072e+002, 5.565489e+002
1.729893e+002, 5.558873e+002
1.734714e+002, 5.564711e+002
1.739535e+002, 5.570567e+002
1.744356e+002, 5.571642e+002
1.749177e+002, 5.569506e+002
1.753999e+002, 5.565826e+002
1.758820e+002, 5.560574e+002
1.763641e+002, 5.553986e+002
1.768462e+002, 5.542168e+002
1.773283e+002, 5.528439e+002
1.778104e+002, 5.521415e+002
1.782926e+002, 5.533134e+002
1.787747e+002, 5.552012e+002
1.792568e+002, 5.557229e+002
1.797389e+002, 5.546271e+002
1.802210e+002, 5.531166e+002
1.807031e+002, 5.525159e+002
1.811853e+002, 5.526469e+002
1.816674e+002, 5.529053e+002
1.821495e+002, 5.528606e+002
1.826316e+002, 5.527317e+002
1.831137e+002, 5.531246e+002
1.835958e+002, 5.541649e+002
1.840780e+002, 5.553879e+002
1.845601e+002, 5.559995e+002
1.850422e+002, 5.561348e+002
1.855243e+002, 5.567287e+002
1.860064e+002, 5.591166e+002
1.864885e+002, 5.625277e+002
1.869707e+002, 5.638444e+002
1.874528e+002, 5.625519e+002
1.879349e+002, 5.601475e+002
1.884170e+002, 5.588806e+002
1.888991e+002, 5.586907e+002
1.893812e+002, 5.585367e+002
1.898634e+002, 5.580117e+002
1.903455e+002, 5.570887e+002
1.908276e+002, 5.555107e+002
1.913097e+002, 5.530862e+002
1.917918e+002, 5.503177e+002
1.922739e+002, 5.479620e+002
1.927561e+002, 5.459843e+002
1.932382e+002, 5.444442e+002
1.937203e+002, 5.434971e+002
1.942024e+002, 5.430971e+002
1.946845e+002, 5.426136e+002
1.951666e+002, 5.419834e+002
1.956488e+002, 5.412867e+002
1.961309e+002, 5.406807e+002
1.966130e+002, 5.401653e+002
1.970951e+002, 5.396987e+002
1.975772e+002, 5.391722e+002
1.980593e+002, 5.385834e+002
1.985415e+002, 5.383502e+002
1.990236e+002, 5.385297e+002
1.995057e+002, 5.390478e+002
1.999878e+002, 5.398402e+002
2.004699e+002, 5.409858e+002
2.009520e+002, 5.420202e+002
2.014342e+002, 5.425860e+002
2.019163e+002, 5.426355e+002
2.023984e+002, 5.428698e+002
2.028805e+002, 5.434161e+002
2.033626e+002, 5.440983e+002
2.038447e+002, 5.444313e+002
2.043269e+002, 5.443270e+002
2.048090e+002, 5.441863e+002
2.052911e+002, 5.442097e+002
2.057732e+002, 5.443965e+002
2.062553e+002, 5.447626e+002
2.067374e+002, 5.453618e+002
2.072196e+002, 5.461087e+002
2.077017e+002, 5.467573e+002
2.081838e+002, 5.472707e+002
2.086659e+002, 5.477960e+002
2.091480e+002, 5.484987e+002
2.096301e+002, 5.495205e+002
2.101123e+002, 5.500516e+002
2.105944e+002, 5.498582e+002
2.110765e+002, 5.492506e+002
2.115586e+002, 5.491365e+002
2.120407e+002, 5.496492e+002
2.125228e+002, 5.503577e+002
2.130050e+002, 5.509504e+002
2.134871e+002, 5.512531e+002
2.139692e+002, 5.521317e+002
2.144513e+002, 5.539065e+002
2.149334e+002, 5.561757e+002
2.154155e+002, 5.577645e+002
2.158977e+002, 5.584739e+002
2.163798e+002, 5.588772e+002
2.168619e+002, 5.592097e+002
2.173440e+002, 5.593716e+002
2.178261e+002, 5.597443e+002
2.183082e+002, 5.603465e+002
2.187904e+002, 5.611567e+002
2.192725e+002, 5.621643e+002
2.197546e+002, 5.635041e+002
2.202367e+002, 5.647808e+002
2.207188e+002, 5.656189e+002
2.212009e+002, 5.654641e+002
2.216831e+002, 5.665413e+002
2.221652e+002, 5.696236e+002
2.226473e+002, 5.737996e+002
2.231294e+002, 5.761658e+002
2.236115e+002, 5.758524e+002
2.240936e+002, 5.752353e+002
2.245758e+002, 5.755369e+002
2.250579e+002, 5.773771e+002
2.255400e+002, 5.785871e+002
2.260221e+002, 5.788568e+002
2.265042e+002, 5.785567e+002
2.269863e+002, 5.786852e+002
2.274685e+002, 5.793623e+002
2.279506e+002, 5.802859e+002
2.284327e+002, 5.813573e+002
2.289148e+002, 5.827339e+002
2.293969e+002, 5.838914e+002
2.298790e+002, 5.847230e+002
2.303612e+002, 5.853538e+002
2.308433e+002, 5.861163e+002
2.313254e+002, 5.871219e+002
2.318075e+002, 5.880850e+002
2.322896e+002, 5.888851e+002
2.327717e+002, 5.894905e+002
2.332539e+002, 5.900156e+002
2.337360e+002, 5.906304e+002
2.342181e+002, 5.910883e+002
2.347002e+002, 5.906891e+002
2.351823e+002, 5.886415e+002
2.356644e+002, 5.869247e+002
2.361466e+002, 5.864322e+002
2.366287e+002, 5.877834e+002
2.371108e+002, 5.886204e+002
2.375929e+002, 5.885762e+002
2.380750e+002, 5.881584e+002
2.385571e+002, 5.884199e+002
2.390393e+002, 5.895775e+002
2.395214e+002, 5.910841e+002
2.400035e+002, 5.928332e+002
2.404856e+002, 5.950744e+002
2.409677e+002, 5.968039e+002
2.414498e+002, 5.975042e+002
2.419320e+002, 5.979766e+002
2.424141e+002, 5.998353e+002
2.428962e+002, 6.042751e+002
2.433783e+002, 6.081822e+002
2.438604e+002, 6.103718e+002
2.443425e+002, 6.102799e+002
2.448247e+002, 6.105958e+002
2.453068e+002, 6.114698e+002
2.457889e+002, 6.126636e+002
2.462710e+002, 6.139080e+002
2.467531e+002, 6.156122e+002
2.472352e+002, 6.166581e+002
2.477174e+002, 6.166774e+002
2.481995e+002, 6.155715e+002
2.486816e+002, 6.138372e+002
2.491637e+002, 6.110676e+002
2.496458e+002, 6.079520e+002
2.501279e+002, 6.055427e+002
2.506101e+002, 6.041929e+002
2.510922e+002, 6.028375e+002
2.515743e+002, 6.012393e+002
2.520564e+002, 5.993904e+002
2.525385e+002, 5.972599e+002
2.530206e+002, 5.946877e+002
2.535028e+002, 5.919604e+002
2.539849e+002, 5.895300e+002
2.544670e+002, 5.875729e+002
2.549491e+002, 5.854617e+002
2.554312e+002, 5.828967e+002
2.559133e+002, 5.798422e+002
2.563955e+002, 5.774380e+002
2.568776e+002, 5.758645e+002
2.573597e+002, 5.747337e+002
2.578418e+002, 5.736846e+002
2.583239e+002, 5.728031e+002
2.588061e+002, 5.717540e+002
2.592882e+002, 5.703757e+002
2.597703e+002, 5.686700e+002
2.602524e+002, 5.673224e+002
2.607345e+002, 5.665883e+002
2.612166e+002, 5.658386e+002
2.616988e+002, 5.642853e+002
2.621809e+002, 5.613723e+002
2.626630e+002, 5.593972e+002
2.631451e+002, 5.591163e+002
2.636272e+002, 5.602763e+002
2.641093e+002, 5.605194e+002
2.645915e+002, 5.595719e+002
2.650736e+002, 5.582090e+002
2.655557e+002, 5.569544e+002
2.660378e+002, 5.558018e+002
2.665199e+002, 5.548924e+002
2.670020e+002, 5.543279e+002
2.674842e+002, 5.540282e+002
2.679663e+002, 5.535709e+002
2.684484e+002, 5.528516e+002
2.689305e+002, 5.522088e+002
2.694126e+002, 5.518450e+002
2.698947e+002, 5.517384e+002
2.703769e+002, 5.520488e+002
2.708590e+002, 5.530001e+002
2.713411e+002, 5.542772e+002
2.718232e+002, 5.548129e+002
2.723053e+002, 5.544752e+002
2.727874e+002, 5.537929e+002
2.732696e+002, 5.528799e+002
2.737517e+002, 5.516038e+002
2.742338e+002, 5.511374e+002
2.747159e+002, 5.519127e+002
2.751980e+002, 5.531766e+002
2.756801e+002, 5.530201e+002
2.761623e+002, 5.511820e+002
2.766444e+002, 5.491119e+002
2.771265e+002, 5.476243e+002
2.776086e+002, 5.467720e+002
2.780907e+002, 5.455564e+002
2.785728e+002, 5.439138e+002
2.790550e+002, 5.419551e+002
2.795371e+002, 5.397347e+002
2.800192e+002, 5.371895e+002
2.805013e+002, 5.348890e+002
2.809834e+002, 5.330089e+002
2.814655e+002, 5.315505e+002
2.819477e+002, 5.307493e+002
2.824298e+002, 5.307245e+002
2.829119e+002, 5.310438e+002
2.833940e+002, 5.311566e+002
2.838761e+002, 5.310529e+002
2.843582e+002, 5.308502e+002
2.848404e+002, 5.304668e+002
2.853225e+002, 5.299771e+002
2.858046e+002, 5.299876e+002
2.862867e+002, 5.305990e+002
2.867688e+002, 5.312166e+002
2.872509e+002, 5.310083e+002
2.877331e+002, 5.300460e+002
2.882152e+002, 5.293553e+002
2.886973e+002, 5.294571e+002
2.891794e+002, 5.300204e+002
2.896615e+002, 5.298118e+002
2.901436e+002, 5.287707e+002
2.906258e+002, 5.277591e+002
2.911079e+002, 5.276735e+002
2.915900e+002, 5.283687e+002
2.920721e+002, 5.290466e+002
2.925542e+002, 5.295441e+002
2.930363e+002, 5.298834e+002
2.935185e+002, 5.300189e+002
2.940006e+002, 5.299589e+002
2.944827e+002, 5.299540e+002
2.949648e+002, 5.303925e+002
2.954469e+002, 5.310655e+002
2.959290e+002, 5.313048e+002
2.964112e+002, 5.309352e+002
2.968933e+002, 5.301621e+002
2.973754e+002, 5.291705e+002
2.978575e+002, 5.279988e+002
2.983396e+002, 5.268760e+002
2.988217e+002, 5.259122e+002
2.993039e+002, 5.251078e+002
2.997860e+002, 5.245865e+002
3.002681e+002, 5.244717e+002
3.007502e+002, 5.242661e+002
3.012323e+002, 5.231321e+002
3.017144e+002, 5.213329e+002
3.021966e+002, 5.198485e+002
3.026787e+002, 5.195295e+002
3.031608e+002, 5.196829e+002
3.036429e+002, 5.193089e+002
3.041250e+002, 5.182812e+002
3.046071e+002, 5.171140e+002
3.050893e+002, 5.160223e+002
3.055714e+002, 5.151351e+002
3.060535e+002, 5.147589e+002
3.065356e+002, 5.156805e+002
3.070177e+002, 5.167818e+002
3.074998e+002, 5.168899e+002
3.079820e+002, 5.159734e+002
3.084641e+002, 5.148245e+002
3.089462e+002, 5.135806e+002
3.094283e+002, 5.125541e+002
3.099104e+002, 5.121936e+002
3.103925e+002, 5.135129e+002
3.108747e+002, 5.148940e+002
3.113568e+002, 5.151231e+002
3.118389e+002, 5.143284e+002
3.123210e+002, 5.134413e+002
3.128031e+002, 5.126910e+002
3.132852e+002, 5.122158e+002
3.137674e+002, 5.121569e+002
3.142495e+002, 5.127125e+002
3.147316e+002, 5.134818e+002
3.152137e+002, 5.143915e+002
3.156958e+002, 5.153801e+002
3.161779e+002, 5.162449e+002
3.166601e+002, 5.169772e+002
3.171422e+002, 5.175011e+002
3.176243e+002, 5.176693e+002
3.181064e+002, 5.171210e+002
3.185885e+002, 5.169111e+002
3.190706e+002, 5.177098e+002
3.195528e+002, 5.190643e+002
3.200349e+002, 5.201022e+002
3.205170e+002, 5.202759e+002
3.209991e+002, 5.203222e+002
3.214812e+002, 5.205331e+002
3.219633e+002, 5.209492e+002
3.224455e+002, 5.214916e+002
3.229276e+002, 5.223515e+002
3.234097e+002, 5.232686e+002
3.238918e+002, 5.239236e+002
3.243739e+002, 5.239283e+002
3.248560e+002, 5.240076e+002
3.253382e+002, 5.244357e+002
3.258203e+002, 5.252864e+002
3.263024e+002, 5.258932e+002
3.267845e+002, 5.258378e+002
3.272666e+002, 5.257350e+002
3.277487e+002, 5.260845e+002
3.282309e+002, 5.281675e+002
3.287130e+002, 5.291869e+002
3.291951e+002, 5.282158e+002
3.296772e+002, 5.255446e+002
3.301593e+002, 5.241245e+002
3.306414e+002, 5.249691e+002
3.311236e+002, 5.261094e+002
3.316057e+002, 5.264225e+002
3.320878e+002, 5.250016e+002
3.325699e+002, 5.244066e+002
3.330520e+002, 5.251713e+002
3.335341e+002, 5.267216e+002
3.340163e+002, 5.274362e+002
3.344984e+002, 5.269427e+002
3.349805e+002, 5.262153e+002
3.354626e+002, 5.255827e+002
3.359447e+002, 5.249780e+002
3.364268e+002, 5.247999e+002
3.369090e+002, 5.253004e+002
3.373911e+002, 5.259759e+002
3.378732e+002, 5.259292e+002
3.383553e+002, 5.249258e+002
3.388374e+002, 5.240363e+002
3.393195e+002, 5.235687e+002
3.398017e+002, 5.235238e+002
3.402838e+002, 5.238265e+002
3.407659e+002, 5.246378e+002
3.412480e+002, 5.254040e+002
3.417301e+002, 5.253265e+002
3.422122e+002, 5.243118e+002
3.426944e+002, 5.238893e+002
3.431765e+002, 5.245151e+002
3.436586e+002, 5.259166e+002
3.441407e+002, 5.272099e+002
3.446228e+002, 5.283806e+002
3.451049e+002, 5.295280e+002
3.455871e+002, 5.307023e+002
3.460692e+002, 5.319133e+002
3.465513e+002, 5.331996e+002
3.470334e+002, 5.346870e+002
3.475155e+002, 5.360122e+002
3.479977e+002, 5.362360e+002
3.484798e+002, 5.355103e+002
3.489619e+002, 5.350867e+002
3.494440e+002, 5.360336e+002
3.499261e+002, 5.377656e+002
3.504082e+002, 5.389826e+002
3.508904e+002, 5.395906e+002
3.513725e+002, 5.397891e+002
3.518546e+002, 5.396142e+002
3.523367e+002, 5.391790e+002
3.528188e+002, 5.387791e+002
3.533009e+002, 5.388926e+002
3.537831e+002, 5.389259e+002
3.542652e+002, 5.378766e+002
3.547473e+002, 5.358044e+002
3.552294e+002, 5.339926e+002
3.557115e+002, 5.337977e+002
3.561936e+002, 5.342953e+002
3.566758e+002, 5.342722e+002
3.571579e+002, 5.332081e+002
3.576400e+002, 5.317360e+002
3.581221e+002, 5.301074e+002
3.586042e+002, 5.284059e+002
3.590863e+002, 5.268723e+002
3.595685e+002, 5.255030e+002
3.600506e+002, 5.244314e+002
3.605327e+002, 5.237966e+002
3.610148e+002, 5.237299e+002
3.614969e+002, 5.238162e+002
3.619790e+002, 5.242529e+002
3.624612e+002, 5.246793e+002
3.629433e+002, 5.244938e+002
3.634254e+002, 5.225652e+002
3.639075e+002, 5.208144e+002
3.643896e+002, 5.202985e+002
3.648717e+002, 5.213254e+002
3.653539e+002, 5.216476e+002
3.658360e+002, 5.200941e+002
3.663181e+002, 5.179772e+002
3.668002e+002, 5.164655e+002
3.672823e+002, 5.162688e+002
3.677644e+002, 5.160354e+002
3.682466e+002, 5.155030e+002
3.687287e+002, 5.147031e+002
3.692108e+002, 5.140893e+002
3.696929e+002, 5.141539e+002
3.701750e+002, 5.139700e+002
3.706571e+002, 5.130269e+002
3.711393e+002, 5.105771e+002
3.716214e+002, 5.086777e+002
3.721035e+002, 5.075143e+002
3.725856e+002, 5.068443e+002
3.730677e+002, 5.061356e+002
3.735498e+002, 5.053353e+002
3.740320e+002, 5.045922e+002
3.745141e+002, 5.039545e+002
3.749962e+002, 5.034225e+002
3.754783e+002, 5.030151e+002
3.759604e+002, 5.027270e+002
3.764425e+002, 5.025798e+002
3.769247e+002, 5.027008e+002
3.774068e+002, 5.031746e+002
3.778889e+002, 5.033394e+002
3.783710e+002, 5.028451e+002
3.788531e+002, 5.019488e+002
3.793352e+002, 5.018330e+002
3.798174e+002, 5.025871e+002
3.802995e+002, 5.035112e+002
3.807816e+002, 5.040221e+002
3.812637e+002, 5.041806e+002
3.817458e+002, 5.044999e+002
3.822279e+002, 5.051454e+002
3.827101e+002, 5.057914e+002
3.831922e+002, 5.056585e+002
3.836743e+002, 5.048978e+002
3.841564e+002, 5.045594e+002
3.846385e+002, 5.054982e+002
3.851206e+002, 5.071985e+002
3.856028e+002, 5.086212e+002
3.860849e+002, 5.097034e+002
3.865670e+002, 5.107240e+002
3.870491e+002, 5.121574e+002
3.875312e+002, 5.137114e+002
3.880133e+002, 5.148090e+002
3.884955e+002, 5.149442e+002
3.889776e+002, 5.147785e+002
3.894597e+002, 5.147939e+002
3.899418e+002, 5.149982e+002
3.904239e+002, 5.154466e+002
3.909060e+002, 5.165858e+002
3.913882e+002, 5.177712e+002
3.918703e+002, 5.183977e+002
3.923524e+002, 5.182304e+002
3.928345e+002, 5.177398e+002
3.933166e+002, 5.171262e+002
3.937987e+002, 5.163475e+002
3.942809e+002, 5.153336e+002
3.947630e+002, 5.138616e+002
3.952451e+002, 5.123167e+002
3.957272e+002, 5.108246e+002
3.962093e+002, 5.093990e+002
3.966914e+002, 5.080551e+002
3.971736e+002, 5.070584e+002
3.976557e+002, 5.060147e+002
3.981378e+002, 5.045547e+002
3.986199e+002, 5.018599e+002
3.991020e+002, 4.996475e+002
3.995841e+002, 4.983944e+002
4.000663e+002, 4.979201e+002
4.005484e+002, 4.969886e+002
4.010305e+002, 4.949530e+002
4.015126e+002, 4.931606e+002
