##NAMES=Raguinite
##RRUFFID=R130617
##IDEAL CHEMISTRY=TlFeS_2_
##LOCALITY=Allchar, Roszdan, Republic of Macedonia
##OWNER=RRUFF
##SOURCE=Mark N. Feinglos
##DESCRIPTION=Black granular crystals, associated with dolomite, realgar, and lorandite.
##STATUS=The identification of this mineral has been confirmed only by single crystal X-ray diffraction.
##URL=rruff.info/R130617
8.813672e+001, 2.682725e+002
8.861884e+001, 2.715528e+002
8.910095e+001, 2.748838e+002
8.958307e+001, 2.790522e+002
9.006519e+001, 2.842156e+002
9.054730e+001, 2.902531e+002
9.102942e+001, 2.983009e+002
9.151154e+001, 3.053008e+002
9.199365e+001, 3.066726e+002
9.247577e+001, 3.034313e+002
9.295789e+001, 3.005377e+002
9.344000e+001, 3.025168e+002
9.392212e+001, 3.074251e+002
9.440424e+001, 3.102648e+002
9.488635e+001, 3.099824e+002
9.536847e+001, 3.079847e+002
9.585059e+001, 3.068694e+002
9.633270e+001, 3.065869e+002
9.681482e+001, 3.070730e+002
9.729694e+001, 3.080513e+002
9.777905e+001, 3.095197e+002
9.826117e+001, 3.124670e+002
9.874329e+001, 3.178517e+002
9.922540e+001, 3.251098e+002
9.970752e+001, 3.300692e+002
1.001896e+002, 3.321400e+002
1.006718e+002, 3.330953e+002
1.011539e+002, 3.350296e+002
1.016360e+002, 3.380652e+002
1.021181e+002, 3.416357e+002
1.026002e+002, 3.455213e+002
1.030823e+002, 3.496732e+002
1.035645e+002, 3.543072e+002
1.040466e+002, 3.591271e+002
1.045287e+002, 3.646260e+002
1.050108e+002, 3.720157e+002
1.054929e+002, 3.822608e+002
1.059750e+002, 3.929339e+002
1.064572e+002, 4.033931e+002
1.069393e+002, 4.158092e+002
1.074214e+002, 4.241640e+002
1.079035e+002, 4.266803e+002
1.083856e+002, 4.250016e+002
1.088677e+002, 4.247352e+002
1.093499e+002, 4.260849e+002
1.098320e+002, 4.287040e+002
1.103141e+002, 4.324352e+002
1.107962e+002, 4.378989e+002
1.112783e+002, 4.438377e+002
1.117604e+002, 4.502985e+002
1.122426e+002, 4.572914e+002
1.127247e+002, 4.644307e+002
1.132068e+002, 4.712607e+002
1.136889e+002, 4.784590e+002
1.141710e+002, 4.864255e+002
1.146531e+002, 4.983144e+002
1.151353e+002, 5.080589e+002
1.156174e+002, 5.131185e+002
1.160995e+002, 5.134441e+002
1.165816e+002, 5.138134e+002
1.170637e+002, 5.165845e+002
1.175458e+002, 5.201121e+002
1.180280e+002, 5.226441e+002
1.185101e+002, 5.221972e+002
1.189922e+002, 5.214435e+002
1.194743e+002, 5.218101e+002
1.199564e+002, 5.234017e+002
1.204385e+002, 5.259648e+002
1.209207e+002, 5.291066e+002
1.214028e+002, 5.331288e+002
1.218849e+002, 5.385374e+002
1.223670e+002, 5.484747e+002
1.228491e+002, 5.587043e+002
1.233312e+002, 5.642944e+002
1.238134e+002, 5.639918e+002
1.242955e+002, 5.617794e+002
1.247776e+002, 5.607733e+002
1.252597e+002, 5.608124e+002
1.257418e+002, 5.613422e+002
1.262239e+002, 5.615555e+002
1.267061e+002, 5.621122e+002
1.271882e+002, 5.643552e+002
1.276703e+002, 5.688261e+002
1.281524e+002, 5.744600e+002
1.286345e+002, 5.798410e+002
1.291166e+002, 5.850093e+002
1.295988e+002, 5.903976e+002
1.300809e+002, 5.973965e+002
1.305630e+002, 6.052081e+002
1.310451e+002, 6.102414e+002
1.315272e+002, 6.107581e+002
1.320093e+002, 6.087817e+002
1.324915e+002, 6.089661e+002
1.329736e+002, 6.114368e+002
1.334557e+002, 6.149293e+002
1.339378e+002, 6.186184e+002
1.344199e+002, 6.224904e+002
1.349020e+002, 6.258373e+002
1.353842e+002, 6.282951e+002
1.358663e+002, 6.300175e+002
1.363484e+002, 6.318109e+002
1.368305e+002, 6.333429e+002
1.373126e+002, 6.358740e+002
1.377947e+002, 6.417546e+002
1.382769e+002, 6.521234e+002
1.387590e+002, 6.600176e+002
1.392411e+002, 6.631254e+002
1.397232e+002, 6.613829e+002
1.402053e+002, 6.589085e+002
1.406874e+002, 6.554183e+002
1.411696e+002, 6.515474e+002
1.416517e+002, 6.482184e+002
1.421338e+002, 6.456493e+002
1.426159e+002, 6.431376e+002
1.430980e+002, 6.402530e+002
1.435801e+002, 6.366789e+002
1.440623e+002, 6.346176e+002
1.445444e+002, 6.346989e+002
1.450265e+002, 6.359879e+002
1.455086e+002, 6.369020e+002
1.459907e+002, 6.372686e+002
1.464728e+002, 6.375478e+002
1.469550e+002, 6.378729e+002
1.474371e+002, 6.381932e+002
1.479192e+002, 6.386910e+002
1.484013e+002, 6.392565e+002
1.488834e+002, 6.400064e+002
1.493655e+002, 6.412268e+002
1.498477e+002, 6.435770e+002
1.503298e+002, 6.458184e+002
1.508119e+002, 6.475477e+002
1.512940e+002, 6.493924e+002
1.517761e+002, 6.498049e+002
1.522583e+002, 6.476996e+002
1.527404e+002, 6.439816e+002
1.532225e+002, 6.411918e+002
1.537046e+002, 6.403790e+002
1.541867e+002, 6.399501e+002
1.546688e+002, 6.391989e+002
1.551510e+002, 6.382396e+002
1.556331e+002, 6.367052e+002
1.561152e+002, 6.340666e+002
1.565973e+002, 6.306640e+002
1.570794e+002, 6.278904e+002
1.575615e+002, 6.260008e+002
1.580437e+002, 6.248351e+002
1.585258e+002, 6.242900e+002
1.590079e+002, 6.246773e+002
1.594900e+002, 6.253373e+002
1.599721e+002, 6.260596e+002
1.604542e+002, 6.268822e+002
1.609364e+002, 6.280213e+002
1.614185e+002, 6.300134e+002
1.619006e+002, 6.321346e+002
1.623827e+002, 6.338011e+002
1.628648e+002, 6.347324e+002
1.633469e+002, 6.352687e+002
1.638291e+002, 6.353802e+002
1.643112e+002, 6.351127e+002
1.647933e+002, 6.349399e+002
1.652754e+002, 6.349659e+002
1.657575e+002, 6.352471e+002
1.662396e+002, 6.358437e+002
1.667218e+002, 6.366376e+002
1.672039e+002, 6.378548e+002
1.676860e+002, 6.398167e+002
1.681681e+002, 6.424894e+002
1.686502e+002, 6.452469e+002
1.691323e+002, 6.477620e+002
1.696145e+002, 6.500828e+002
1.700966e+002, 6.522576e+002
1.705787e+002, 6.549677e+002
1.710608e+002, 6.571468e+002
1.715429e+002, 6.575787e+002
1.720250e+002, 6.561820e+002
1.725072e+002, 6.544342e+002
1.729893e+002, 6.533613e+002
1.734714e+002, 6.527286e+002
1.739535e+002, 6.521000e+002
1.744356e+002, 6.512113e+002
1.749177e+002, 6.502585e+002
1.753999e+002, 6.490540e+002
1.758820e+002, 6.474568e+002
1.763641e+002, 6.469534e+002
1.768462e+002, 6.496660e+002
1.773283e+002, 6.546250e+002
1.778104e+002, 6.593574e+002
1.782926e+002, 6.625387e+002
1.787747e+002, 6.647371e+002
1.792568e+002, 6.667390e+002
1.797389e+002, 6.685168e+002
1.802210e+002, 6.703365e+002
1.807031e+002, 6.723634e+002
1.811853e+002, 6.746171e+002
1.816674e+002, 6.771423e+002
1.821495e+002, 6.803490e+002
1.826316e+002, 6.838220e+002
1.831137e+002, 6.864323e+002
1.835958e+002, 6.880714e+002
1.840780e+002, 6.891848e+002
1.845601e+002, 6.904931e+002
1.850422e+002, 6.918945e+002
1.855243e+002, 6.928037e+002
1.860064e+002, 6.931504e+002
1.864885e+002, 6.928066e+002
1.869707e+002, 6.911007e+002
1.874528e+002, 6.877844e+002
1.879349e+002, 6.836847e+002
1.884170e+002, 6.798845e+002
1.888991e+002, 6.763774e+002
1.893812e+002, 6.730765e+002
1.898634e+002, 6.698461e+002
1.903455e+002, 6.667304e+002
1.908276e+002, 6.639841e+002
1.913097e+002, 6.616413e+002
1.917918e+002, 6.595411e+002
1.922739e+002, 6.572957e+002
1.927561e+002, 6.548502e+002
1.932382e+002, 6.527546e+002
1.937203e+002, 6.512491e+002
1.942024e+002, 6.503264e+002
1.946845e+002, 6.500309e+002
1.951666e+002, 6.505740e+002
1.956488e+002, 6.514182e+002
1.961309e+002, 6.514609e+002
1.966130e+002, 6.506276e+002
1.970951e+002, 6.496083e+002
1.975772e+002, 6.486569e+002
1.980593e+002, 6.477725e+002
1.985415e+002, 6.473578e+002
1.990236e+002, 6.475956e+002
1.995057e+002, 6.481345e+002
1.999878e+002, 6.482474e+002
2.004699e+002, 6.479426e+002
2.009520e+002, 6.471732e+002
2.014342e+002, 6.459255e+002
2.019163e+002, 6.441961e+002
2.023984e+002, 6.418656e+002
2.028805e+002, 6.386329e+002
2.033626e+002, 6.350500e+002
2.038447e+002, 6.325764e+002
2.043269e+002, 6.314127e+002
2.048090e+002, 6.306251e+002
2.052911e+002, 6.294464e+002
2.057732e+002, 6.276034e+002
2.062553e+002, 6.272695e+002
2.067374e+002, 6.289773e+002
2.072196e+002, 6.320150e+002
2.077017e+002, 6.344084e+002
2.081838e+002, 6.359451e+002
2.086659e+002, 6.374381e+002
2.091480e+002, 6.392297e+002
2.096301e+002, 6.412728e+002
2.101123e+002, 6.439926e+002
2.105944e+002, 6.476865e+002
2.110765e+002, 6.519527e+002
2.115586e+002, 6.555496e+002
2.120407e+002, 6.581688e+002
2.125228e+002, 6.608331e+002
2.130050e+002, 6.641122e+002
2.134871e+002, 6.681281e+002
2.139692e+002, 6.722302e+002
2.144513e+002, 6.763559e+002
2.149334e+002, 6.805375e+002
2.154155e+002, 6.850439e+002
2.158977e+002, 6.900120e+002
2.163798e+002, 6.950342e+002
2.168619e+002, 6.998273e+002
2.173440e+002, 7.042455e+002
2.178261e+002, 7.088819e+002
2.183082e+002, 7.140127e+002
2.187904e+002, 7.192606e+002
2.192725e+002, 7.233641e+002
2.197546e+002, 7.259219e+002
2.202367e+002, 7.279842e+002
2.207188e+002, 7.297842e+002
2.212009e+002, 7.305946e+002
2.216831e+002, 7.331828e+002
2.221652e+002, 7.377381e+002
2.226473e+002, 7.441137e+002
2.231294e+002, 7.516721e+002
2.236115e+002, 7.603397e+002
2.240936e+002, 7.704404e+002
2.245758e+002, 7.824291e+002
2.250579e+002, 7.969459e+002
2.255400e+002, 8.117051e+002
2.260221e+002, 8.268670e+002
2.265042e+002, 8.422491e+002
2.269863e+002, 8.574020e+002
2.274685e+002, 8.748681e+002
2.279506e+002, 8.884153e+002
2.284327e+002, 8.950331e+002
2.289148e+002, 8.929218e+002
2.293969e+002, 8.879580e+002
2.298790e+002, 8.793115e+002
2.303612e+002, 8.680743e+002
2.308433e+002, 8.569866e+002
2.313254e+002, 8.458896e+002
2.318075e+002, 8.349638e+002
2.322896e+002, 8.243685e+002
2.327717e+002, 8.145944e+002
2.332539e+002, 8.040192e+002
2.337360e+002, 7.931943e+002
2.342181e+002, 7.815560e+002
2.347002e+002, 7.674034e+002
2.351823e+002, 7.491644e+002
2.356644e+002, 7.309159e+002
2.361466e+002, 7.142471e+002
2.366287e+002, 6.996219e+002
2.371108e+002, 6.853080e+002
2.375929e+002, 6.711072e+002
2.380750e+002, 6.575038e+002
2.385571e+002, 6.456031e+002
2.390393e+002, 6.354700e+002
2.395214e+002, 6.269584e+002
2.400035e+002, 6.202566e+002
2.404856e+002, 6.159348e+002
2.409677e+002, 6.114728e+002
2.414498e+002, 6.064015e+002
2.419320e+002, 6.014613e+002
2.424141e+002, 5.979683e+002
2.428962e+002, 5.966580e+002
2.433783e+002, 5.956260e+002
2.438604e+002, 5.942687e+002
2.443425e+002, 5.925098e+002
2.448247e+002, 5.906972e+002
2.453068e+002, 5.885731e+002
2.457889e+002, 5.865648e+002
2.462710e+002, 5.853508e+002
2.467531e+002, 5.852390e+002
2.472352e+002, 5.853865e+002
2.477174e+002, 5.855855e+002
2.481995e+002, 5.858566e+002
2.486816e+002, 5.860163e+002
2.491637e+002, 5.859590e+002
2.496458e+002, 5.858571e+002
2.501279e+002, 5.859906e+002
2.506101e+002, 5.865561e+002
2.510922e+002, 5.869753e+002
2.515743e+002, 5.870746e+002
2.520564e+002, 5.868243e+002
2.525385e+002, 5.864442e+002
2.530206e+002, 5.857592e+002
2.535028e+002, 5.851022e+002
2.539849e+002, 5.848497e+002
2.544670e+002, 5.849274e+002
2.549491e+002, 5.855837e+002
2.554312e+002, 5.871487e+002
2.559133e+002, 5.897064e+002
2.563955e+002, 5.913931e+002
2.568776e+002, 5.919340e+002
2.573597e+002, 5.919107e+002
2.578418e+002, 5.919162e+002
2.583239e+002, 5.919817e+002
2.588061e+002, 5.919650e+002
2.592882e+002, 5.916791e+002
2.597703e+002, 5.911378e+002
2.602524e+002, 5.913858e+002
2.607345e+002, 5.926886e+002
2.612166e+002, 5.944077e+002
2.616988e+002, 5.960284e+002
2.621809e+002, 5.975033e+002
2.626630e+002, 5.989297e+002
2.631451e+002, 6.002731e+002
2.636272e+002, 6.015677e+002
2.641093e+002, 6.029037e+002
2.645915e+002, 6.040706e+002
2.650736e+002, 6.056795e+002
2.655557e+002, 6.084954e+002
2.660378e+002, 6.129975e+002
2.665199e+002, 6.168322e+002
2.670020e+002, 6.195403e+002
2.674842e+002, 6.213265e+002
2.679663e+002, 6.229811e+002
2.684484e+002, 6.243232e+002
2.689305e+002, 6.259296e+002
2.694126e+002, 6.284499e+002
2.698947e+002, 6.323699e+002
2.703769e+002, 6.351962e+002
2.708590e+002, 6.367159e+002
2.713411e+002, 6.370006e+002
2.718232e+002, 6.361559e+002
2.723053e+002, 6.340632e+002
2.727874e+002, 6.312074e+002
2.732696e+002, 6.276776e+002
2.737517e+002, 6.233553e+002
2.742338e+002, 6.191024e+002
2.747159e+002, 6.148974e+002
2.751980e+002, 6.108270e+002
2.756801e+002, 6.070667e+002
2.761623e+002, 6.035158e+002
2.766444e+002, 6.007457e+002
2.771265e+002, 5.993041e+002
2.776086e+002, 5.992940e+002
2.780907e+002, 5.990303e+002
2.785728e+002, 5.984128e+002
2.790550e+002, 5.976213e+002
2.795371e+002, 5.968409e+002
2.800192e+002, 5.960193e+002
2.805013e+002, 5.956293e+002
2.809834e+002, 5.959374e+002
2.814655e+002, 5.969297e+002
2.819477e+002, 5.983464e+002
2.824298e+002, 6.004070e+002
2.829119e+002, 6.022585e+002
2.833940e+002, 6.022924e+002
2.838761e+002, 6.004470e+002
2.843582e+002, 5.990885e+002
2.848404e+002, 5.992597e+002
2.853225e+002, 6.007178e+002
2.858046e+002, 6.021093e+002
2.862867e+002, 6.034343e+002
2.867688e+002, 6.046075e+002
2.872509e+002, 6.054883e+002
2.877331e+002, 6.060925e+002
2.882152e+002, 6.066367e+002
2.886973e+002, 6.072740e+002
2.891794e+002, 6.078906e+002
2.896615e+002, 6.079472e+002
2.901436e+002, 6.074004e+002
2.906258e+002, 6.069231e+002
2.911079e+002, 6.072800e+002
2.915900e+002, 6.083245e+002
2.920721e+002, 6.092303e+002
2.925542e+002, 6.097705e+002
2.930363e+002, 6.100773e+002
2.935185e+002, 6.102777e+002
2.940006e+002, 6.103844e+002
2.944827e+002, 6.107330e+002
2.949648e+002, 6.118106e+002
2.954469e+002, 6.133723e+002
2.959290e+002, 6.145092e+002
2.964112e+002, 6.147667e+002
2.968933e+002, 6.150315e+002
2.973754e+002, 6.170131e+002
2.978575e+002, 6.204349e+002
2.983396e+002, 6.236876e+002
2.988217e+002, 6.254828e+002
2.993039e+002, 6.263756e+002
2.997860e+002, 6.274207e+002
3.002681e+002, 6.287902e+002
3.007502e+002, 6.302338e+002
3.012323e+002, 6.314343e+002
3.017144e+002, 6.324547e+002
3.021966e+002, 6.334490e+002
3.026787e+002, 6.343974e+002
3.031608e+002, 6.354241e+002
3.036429e+002, 6.368017e+002
3.041250e+002, 6.385857e+002
3.046071e+002, 6.403762e+002
3.050893e+002, 6.416362e+002
3.055714e+002, 6.426303e+002
3.060535e+002, 6.438615e+002
3.065356e+002, 6.458875e+002
3.070177e+002, 6.480756e+002
3.074998e+002, 6.497769e+002
3.079820e+002, 6.509886e+002
3.084641e+002, 6.520145e+002
3.089462e+002, 6.530283e+002
3.094283e+002, 6.540146e+002
3.099104e+002, 6.549395e+002
3.103925e+002, 6.557763e+002
3.108747e+002, 6.565635e+002
3.113568e+002, 6.571496e+002
3.118389e+002, 6.576068e+002
3.123210e+002, 6.584396e+002
3.128031e+002, 6.605409e+002
3.132852e+002, 6.628870e+002
3.137674e+002, 6.644435e+002
3.142495e+002, 6.641020e+002
3.147316e+002, 6.639718e+002
3.152137e+002, 6.653568e+002
3.156958e+002, 6.678584e+002
3.161779e+002, 6.701429e+002
3.166601e+002, 6.710723e+002
3.171422e+002, 6.719623e+002
3.176243e+002, 6.737675e+002
3.181064e+002, 6.771490e+002
3.185885e+002, 6.803478e+002
3.190706e+002, 6.826906e+002
3.195528e+002, 6.844431e+002
3.200349e+002, 6.861253e+002
3.205170e+002, 6.873642e+002
3.209991e+002, 6.889863e+002
3.214812e+002, 6.913361e+002
3.219633e+002, 6.944971e+002
3.224455e+002, 6.982316e+002
3.229276e+002, 7.027452e+002
3.234097e+002, 7.077467e+002
3.238918e+002, 7.128785e+002
3.243739e+002, 7.185506e+002
3.248560e+002, 7.239026e+002
3.253382e+002, 7.283832e+002
3.258203e+002, 7.318165e+002
3.263024e+002, 7.362478e+002
3.267845e+002, 7.429156e+002
3.272666e+002, 7.500804e+002
3.277487e+002, 7.563866e+002
3.282309e+002, 7.615514e+002
3.287130e+002, 7.660881e+002
3.291951e+002, 7.696980e+002
3.296772e+002, 7.725130e+002
3.301593e+002, 7.759327e+002
3.306414e+002, 7.811052e+002
3.311236e+002, 7.857409e+002
3.316057e+002, 7.884460e+002
3.320878e+002, 7.872108e+002
3.325699e+002, 7.877247e+002
3.330520e+002, 7.911290e+002
3.335341e+002, 7.961974e+002
3.340163e+002, 7.993450e+002
3.344984e+002, 7.992756e+002
3.349805e+002, 7.993952e+002
3.354626e+002, 8.012687e+002
3.359447e+002, 8.055176e+002
3.364268e+002, 8.091573e+002
3.369090e+002, 8.120949e+002
3.373911e+002, 8.145775e+002
3.378732e+002, 8.169739e+002
3.383553e+002, 8.193409e+002
3.388374e+002, 8.214332e+002
3.393195e+002, 8.230654e+002
3.398017e+002, 8.242594e+002
3.402838e+002, 8.260969e+002
3.407659e+002, 8.289344e+002
3.412480e+002, 8.315438e+002
3.417301e+002, 8.326143e+002
3.422122e+002, 8.320701e+002
3.426944e+002, 8.309749e+002
3.431765e+002, 8.295148e+002
3.436586e+002, 8.276882e+002
3.441407e+002, 8.256208e+002
3.446228e+002, 8.233469e+002
3.451049e+002, 8.205208e+002
3.455871e+002, 8.168409e+002
3.460692e+002, 8.123196e+002
3.465513e+002, 8.074301e+002
3.470334e+002, 8.021985e+002
3.475155e+002, 7.966469e+002
3.479977e+002, 7.908566e+002
3.484798e+002, 7.847997e+002
3.489619e+002, 7.786825e+002
3.494440e+002, 7.723300e+002
3.499261e+002, 7.660236e+002
3.504082e+002, 7.604650e+002
3.508904e+002, 7.557454e+002
3.513725e+002, 7.514769e+002
3.518546e+002, 7.471458e+002
3.523367e+002, 7.429045e+002
3.528188e+002, 7.391006e+002
3.533009e+002, 7.360310e+002
3.537831e+002, 7.333991e+002
3.542652e+002, 7.307496e+002
3.547473e+002, 7.281041e+002
3.552294e+002, 7.259523e+002
3.557115e+002, 7.249525e+002
3.561936e+002, 7.245693e+002
3.566758e+002, 7.240886e+002
3.571579e+002, 7.231015e+002
3.576400e+002, 7.222078e+002
3.581221e+002, 7.219382e+002
3.586042e+002, 7.221562e+002
3.590863e+002, 7.223515e+002
3.595685e+002, 7.224446e+002
3.600506e+002, 7.223182e+002
3.605327e+002, 7.219780e+002
3.610148e+002, 7.216304e+002
3.614969e+002, 7.205215e+002
3.619790e+002, 7.179483e+002
3.624612e+002, 7.144715e+002
3.629433e+002, 7.109938e+002
3.634254e+002, 7.078988e+002
3.639075e+002, 7.047516e+002
3.643896e+002, 7.012704e+002
3.648717e+002, 6.973538e+002
3.653539e+002, 6.937253e+002
3.658360e+002, 6.906251e+002
3.663181e+002, 6.878356e+002
3.668002e+002, 6.850807e+002
3.672823e+002, 6.819880e+002
3.677644e+002, 6.792965e+002
3.682466e+002, 6.774595e+002
3.687287e+002, 6.763427e+002
3.692108e+002, 6.745136e+002
3.696929e+002, 6.715404e+002
3.701750e+002, 6.682136e+002
3.706571e+002, 6.649438e+002
3.711393e+002, 6.616076e+002
3.716214e+002, 6.585051e+002
3.721035e+002, 6.556191e+002
3.725856e+002, 6.529532e+002
3.730677e+002, 6.505927e+002
3.735498e+002, 6.486852e+002
3.740320e+002, 6.467675e+002
3.745141e+002, 6.446126e+002
3.749962e+002, 6.421565e+002
3.754783e+002, 6.401467e+002
3.759604e+002, 6.387283e+002
3.764425e+002, 6.375546e+002
3.769247e+002, 6.361602e+002
3.774068e+002, 6.344789e+002
3.778889e+002, 6.330597e+002
3.783710e+002, 6.320834e+002
3.788531e+002, 6.314753e+002
3.793352e+002, 6.309572e+002
3.798174e+002, 6.305502e+002
3.802995e+002, 6.301113e+002
3.807816e+002, 6.295377e+002
3.812637e+002, 6.288329e+002
3.817458e+002, 6.281223e+002
3.822279e+002, 6.274994e+002
3.827101e+002, 6.266961e+002
3.831922e+002, 6.250677e+002
3.836743e+002, 6.227205e+002
3.841564e+002, 6.204912e+002
3.846385e+002, 6.188137e+002
3.851206e+002, 6.175555e+002
3.856028e+002, 6.165038e+002
3.860849e+002, 6.156671e+002
3.865670e+002, 6.148347e+002
3.870491e+002, 6.138009e+002
3.875312e+002, 6.126205e+002
3.880133e+002, 6.113926e+002
3.884955e+002, 6.101188e+002
3.889776e+002, 6.088369e+002
3.894597e+002, 6.075443e+002
3.899418e+002, 6.062608e+002
3.904239e+002, 6.051168e+002
3.909060e+002, 6.040025e+002
3.913882e+002, 6.031586e+002
3.918703e+002, 6.029293e+002
3.923524e+002, 6.038202e+002
3.928345e+002, 6.043914e+002
3.933166e+002, 6.035731e+002
3.937987e+002, 6.019581e+002
3.942809e+002, 6.007502e+002
3.947630e+002, 6.004571e+002
3.952451e+002, 6.005447e+002
3.957272e+002, 6.007918e+002
3.962093e+002, 6.011655e+002
3.966914e+002, 6.017803e+002
3.971736e+002, 6.033895e+002
3.976557e+002, 6.048969e+002
3.981378e+002, 6.052952e+002
3.986199e+002, 6.035355e+002
3.991020e+002, 6.017066e+002
3.995841e+002, 5.998591e+002
4.000663e+002, 5.980623e+002
4.005484e+002, 5.967906e+002
4.010305e+002, 5.961053e+002
4.015126e+002, 5.958825e+002
4.019947e+002, 5.962307e+002
4.024768e+002, 5.979252e+002
4.029590e+002, 5.982559e+002
