##NAMES=Ribbeite
##RRUFFID=R150125
##IDEAL CHEMISTRY=Mn^2+^_5_(SiO_4_)_2_(OH)_2_
##LOCALITY=Parker Shaft, Franklin, Sussex County, New Jersey, USA
##OWNER=RRUFF
##SOURCE=Michael Scott
##DESCRIPTION=Pink gemmy anhedral fragment found as an inclusion in leucophoenicite (R060308)
##STATUS=The identification of this mineral has been confirmed by single-crystal X-ray diffraction.
##URL=rruff.info/R150125
8.930109e+001, 0.000000e+000
8.978320e+001, 5.321359e+002
9.026532e+001, 5.302684e+002
9.074744e+001, 5.308320e+002
9.122955e+001, 5.354758e+002
9.171167e+001, 5.407613e+002
9.219379e+001, 5.424059e+002
9.267590e+001, 5.409398e+002
9.315802e+001, 5.371145e+002
9.364014e+001, 5.300024e+002
9.412225e+001, 5.209459e+002
9.460437e+001, 5.137969e+002
9.508649e+001, 5.107700e+002
9.556860e+001, 5.094026e+002
9.605072e+001, 5.037644e+002
9.653284e+001, 4.940948e+002
9.701495e+001, 4.836196e+002
9.749707e+001, 4.750074e+002
9.797919e+001, 4.681359e+002
9.846130e+001, 4.624045e+002
9.894342e+001, 4.578021e+002
9.942554e+001, 4.542152e+002
9.990765e+001, 4.506870e+002
1.003898e+002, 4.473475e+002
1.008719e+002, 4.437836e+002
1.013540e+002, 4.389899e+002
1.018361e+002, 4.323015e+002
1.023182e+002, 4.266727e+002
1.028004e+002, 4.235601e+002
1.032825e+002, 4.239232e+002
1.037646e+002, 4.226349e+002
1.042467e+002, 4.189893e+002
1.047288e+002, 4.141596e+002
1.052109e+002, 4.107723e+002
1.056931e+002, 4.085423e+002
1.061752e+002, 4.079518e+002
1.066573e+002, 4.094010e+002
1.071394e+002, 4.151120e+002
1.076215e+002, 4.191225e+002
1.081036e+002, 4.215425e+002
1.085858e+002, 4.223555e+002
1.090679e+002, 4.210557e+002
1.095500e+002, 4.155355e+002
1.100321e+002, 4.095209e+002
1.105142e+002, 4.050282e+002
1.109963e+002, 4.027184e+002
1.114785e+002, 4.011184e+002
1.119606e+002, 4.001830e+002
1.124427e+002, 3.998859e+002
1.129248e+002, 3.999185e+002
1.134069e+002, 4.000441e+002
1.138890e+002, 4.005547e+002
1.143712e+002, 4.016903e+002
1.148533e+002, 4.041400e+002
1.153354e+002, 4.066172e+002
1.158175e+002, 4.087601e+002
1.162996e+002, 4.105791e+002
1.167817e+002, 4.120988e+002
1.172639e+002, 4.136157e+002
1.177460e+002, 4.147995e+002
1.182281e+002, 4.152279e+002
1.187102e+002, 4.141095e+002
1.191923e+002, 4.126364e+002
1.196744e+002, 4.114277e+002
1.201566e+002, 4.105072e+002
1.206387e+002, 4.099987e+002
1.211208e+002, 4.097305e+002
1.216029e+002, 4.099062e+002
1.220850e+002, 4.109629e+002
1.225671e+002, 4.132746e+002
1.230493e+002, 4.164908e+002
1.235314e+002, 4.207180e+002
1.240135e+002, 4.267293e+002
1.244956e+002, 4.318422e+002
1.249777e+002, 4.326050e+002
1.254598e+002, 4.299073e+002
1.259420e+002, 4.271002e+002
1.264241e+002, 4.262472e+002
1.269062e+002, 4.267722e+002
1.273883e+002, 4.276016e+002
1.278704e+002, 4.283935e+002
1.283525e+002, 4.295428e+002
1.288347e+002, 4.319989e+002
1.293168e+002, 4.356994e+002
1.297989e+002, 4.393077e+002
1.302810e+002, 4.415074e+002
1.307631e+002, 4.426381e+002
1.312452e+002, 4.442526e+002
1.317274e+002, 4.470847e+002
1.322095e+002, 4.504933e+002
1.326916e+002, 4.526739e+002
1.331737e+002, 4.535446e+002
1.336558e+002, 4.538523e+002
1.341379e+002, 4.540976e+002
1.346201e+002, 4.542924e+002
1.351022e+002, 4.550365e+002
1.355843e+002, 4.567227e+002
1.360664e+002, 4.591920e+002
1.365485e+002, 4.611577e+002
1.370306e+002, 4.625529e+002
1.375128e+002, 4.636198e+002
1.379949e+002, 4.645682e+002
1.384770e+002, 4.653112e+002
1.389591e+002, 4.664210e+002
1.394412e+002, 4.685685e+002
1.399233e+002, 4.719563e+002
1.404055e+002, 4.732003e+002
1.408876e+002, 4.719089e+002
1.413697e+002, 4.688329e+002
1.418518e+002, 4.649832e+002
1.423339e+002, 4.599415e+002
1.428160e+002, 4.550944e+002
1.432982e+002, 4.509865e+002
1.437803e+002, 4.479182e+002
1.442624e+002, 4.447278e+002
1.447445e+002, 4.413241e+002
1.452266e+002, 4.378265e+002
1.457087e+002, 4.346467e+002
1.461909e+002, 4.317110e+002
1.466730e+002, 4.291269e+002
1.471551e+002, 4.269958e+002
1.476372e+002, 4.261633e+002
1.481193e+002, 4.243779e+002
1.486014e+002, 4.209774e+002
1.490836e+002, 4.165429e+002
1.495657e+002, 4.129420e+002
1.500478e+002, 4.108482e+002
1.505299e+002, 4.091244e+002
1.510120e+002, 4.072647e+002
1.514941e+002, 4.048925e+002
1.519763e+002, 4.028418e+002
1.524584e+002, 4.014468e+002
1.529405e+002, 4.005061e+002
1.534226e+002, 3.989866e+002
1.539047e+002, 3.958603e+002
1.543868e+002, 3.927474e+002
1.548690e+002, 3.905302e+002
1.553511e+002, 3.913080e+002
1.558332e+002, 3.908537e+002
1.563153e+002, 3.878369e+002
1.567974e+002, 3.825947e+002
1.572795e+002, 3.778859e+002
1.577617e+002, 3.743827e+002
1.582438e+002, 3.715900e+002
1.587259e+002, 3.691512e+002
1.592080e+002, 3.672635e+002
1.596901e+002, 3.654640e+002
1.601722e+002, 3.635891e+002
1.606544e+002, 3.616491e+002
1.611365e+002, 3.598471e+002
1.616186e+002, 3.579369e+002
1.621007e+002, 3.563382e+002
1.625828e+002, 3.553927e+002
1.630649e+002, 3.562032e+002
1.635471e+002, 3.568792e+002
1.640292e+002, 3.563373e+002
1.645113e+002, 3.545367e+002
1.649934e+002, 3.528221e+002
1.654755e+002, 3.520213e+002
1.659576e+002, 3.516398e+002
1.664398e+002, 3.510773e+002
1.669219e+002, 3.498318e+002
1.674040e+002, 3.485049e+002
1.678861e+002, 3.475292e+002
1.683682e+002, 3.469341e+002
1.688503e+002, 3.464181e+002
1.693325e+002, 3.455854e+002
1.698146e+002, 3.447263e+002
1.702967e+002, 3.443177e+002
1.707788e+002, 3.452135e+002
1.712609e+002, 3.462909e+002
1.717430e+002, 3.465099e+002
1.722252e+002, 3.457679e+002
1.727073e+002, 3.445685e+002
1.731894e+002, 3.429101e+002
1.736715e+002, 3.410575e+002
1.741536e+002, 3.396545e+002
1.746357e+002, 3.391996e+002
1.751179e+002, 3.392524e+002
1.756000e+002, 3.394142e+002
1.760821e+002, 3.397169e+002
1.765642e+002, 3.397631e+002
1.770463e+002, 3.388271e+002
1.775284e+002, 3.372279e+002
1.780106e+002, 3.359594e+002
1.784927e+002, 3.359752e+002
1.789748e+002, 3.365688e+002
1.794569e+002, 3.364672e+002
1.799390e+002, 3.354347e+002
1.804211e+002, 3.341579e+002
1.809033e+002, 3.334486e+002
1.813854e+002, 3.332103e+002
1.818675e+002, 3.329951e+002
1.823496e+002, 3.324406e+002
1.828317e+002, 3.317256e+002
1.833138e+002, 3.312437e+002
1.837960e+002, 3.310499e+002
1.842781e+002, 3.310680e+002
1.847602e+002, 3.313122e+002
1.852423e+002, 3.317470e+002
1.857244e+002, 3.320683e+002
1.862065e+002, 3.319835e+002
1.866887e+002, 3.316087e+002
1.871708e+002, 3.314040e+002
1.876529e+002, 3.314508e+002
1.881350e+002, 3.316080e+002
1.886171e+002, 3.316572e+002
1.890992e+002, 3.315984e+002
1.895814e+002, 3.314700e+002
1.900635e+002, 3.311457e+002
1.905456e+002, 3.306987e+002
1.910277e+002, 3.307161e+002
1.915098e+002, 3.313871e+002
1.919919e+002, 3.323578e+002
1.924741e+002, 3.329456e+002
1.929562e+002, 3.331461e+002
1.934383e+002, 3.330612e+002
1.939204e+002, 3.325575e+002
1.944025e+002, 3.316780e+002
1.948846e+002, 3.312280e+002
1.953668e+002, 3.314117e+002
1.958489e+002, 3.319500e+002
1.963310e+002, 3.321823e+002
1.968131e+002, 3.320820e+002
1.972952e+002, 3.318702e+002
1.977773e+002, 3.316078e+002
1.982595e+002, 3.312885e+002
1.987416e+002, 3.312409e+002
1.992237e+002, 3.315756e+002
1.997058e+002, 3.321505e+002
2.001879e+002, 3.325399e+002
2.006700e+002, 3.327003e+002
2.011522e+002, 3.329015e+002
2.016343e+002, 3.334679e+002
2.021164e+002, 3.344821e+002
2.025985e+002, 3.349917e+002
2.030806e+002, 3.347519e+002
2.035627e+002, 3.340014e+002
2.040449e+002, 3.335141e+002
2.045270e+002, 3.333541e+002
2.050091e+002, 3.332393e+002
2.054912e+002, 3.328939e+002
2.059733e+002, 3.322211e+002
2.064554e+002, 3.319225e+002
2.069376e+002, 3.322006e+002
2.074197e+002, 3.328750e+002
2.079018e+002, 3.332993e+002
2.083839e+002, 3.334746e+002
2.088660e+002, 3.334012e+002
2.093481e+002, 3.329672e+002
2.098303e+002, 3.320184e+002
2.103124e+002, 3.314244e+002
2.107945e+002, 3.313517e+002
2.112766e+002, 3.316994e+002
2.117587e+002, 3.320336e+002
2.122408e+002, 3.323062e+002
2.127230e+002, 3.326740e+002
2.132051e+002, 3.333477e+002
2.136872e+002, 3.345457e+002
2.141693e+002, 3.352599e+002
2.146514e+002, 3.352607e+002
2.151335e+002, 3.346843e+002
2.156157e+002, 3.341448e+002
2.160978e+002, 3.335701e+002
2.165799e+002, 3.331378e+002
2.170620e+002, 3.330097e+002
2.175441e+002, 3.333379e+002
2.180262e+002, 3.335202e+002
2.185084e+002, 3.335159e+002
2.189905e+002, 3.333194e+002
2.194726e+002, 3.328756e+002
2.199547e+002, 3.320207e+002
2.204368e+002, 3.311928e+002
2.209189e+002, 3.306589e+002
2.214011e+002, 3.304148e+002
2.218832e+002, 3.305289e+002
2.223653e+002, 3.312568e+002
2.228474e+002, 3.323611e+002
2.233295e+002, 3.327016e+002
2.238116e+002, 3.318561e+002
2.242938e+002, 3.309093e+002
2.247759e+002, 3.305253e+002
2.252580e+002, 3.309200e+002
2.257401e+002, 3.313688e+002
2.262222e+002, 3.318725e+002
2.267043e+002, 3.323883e+002
2.271865e+002, 3.327569e+002
2.276686e+002, 3.329174e+002
2.281507e+002, 3.330043e+002
2.286328e+002, 3.330560e+002
2.291149e+002, 3.329495e+002
2.295970e+002, 3.331139e+002
2.300792e+002, 3.337102e+002
2.305613e+002, 3.345995e+002
2.310434e+002, 3.351647e+002
2.315255e+002, 3.351070e+002
2.320076e+002, 3.351656e+002
2.324897e+002, 3.358218e+002
2.329719e+002, 3.375714e+002
2.334540e+002, 3.387787e+002
2.339361e+002, 3.391067e+002
2.344182e+002, 3.388775e+002
2.349003e+002, 3.392529e+002
2.353824e+002, 3.405734e+002
2.358646e+002, 3.420122e+002
2.363467e+002, 3.431532e+002
2.368288e+002, 3.438272e+002
2.373109e+002, 3.445630e+002
2.377930e+002, 3.453539e+002
2.382751e+002, 3.462129e+002
2.387573e+002, 3.471807e+002
2.392394e+002, 3.483595e+002
2.397215e+002, 3.494854e+002
2.402036e+002, 3.504434e+002
2.406857e+002, 3.511779e+002
2.411678e+002, 3.518548e+002
2.416500e+002, 3.524798e+002
2.421321e+002, 3.530387e+002
2.426142e+002, 3.534662e+002
2.430963e+002, 3.535332e+002
2.435784e+002, 3.538082e+002
2.440605e+002, 3.546285e+002
2.445427e+002, 3.564661e+002
2.450248e+002, 3.576223e+002
2.455069e+002, 3.578203e+002
2.459890e+002, 3.574536e+002
2.464711e+002, 3.573871e+002
2.469532e+002, 3.577841e+002
2.474354e+002, 3.582212e+002
2.479175e+002, 3.585366e+002
2.483996e+002, 3.586950e+002
2.488817e+002, 3.588945e+002
2.493638e+002, 3.592711e+002
2.498459e+002, 3.596214e+002
2.503281e+002, 3.594874e+002
2.508102e+002, 3.584485e+002
2.512923e+002, 3.576728e+002
2.517744e+002, 3.576561e+002
2.522565e+002, 3.586671e+002
2.527386e+002, 3.593041e+002
2.532208e+002, 3.594533e+002
2.537029e+002, 3.593126e+002
2.541850e+002, 3.591920e+002
2.546671e+002, 3.591342e+002
2.551492e+002, 3.589979e+002
2.556313e+002, 3.586892e+002
2.561135e+002, 3.581487e+002
2.565956e+002, 3.577953e+002
2.570777e+002, 3.576120e+002
2.575598e+002, 3.576219e+002
2.580419e+002, 3.579710e+002
2.585240e+002, 3.589999e+002
2.590062e+002, 3.595579e+002
2.594883e+002, 3.591722e+002
2.599704e+002, 3.577655e+002
2.604525e+002, 3.566939e+002
2.609346e+002, 3.560118e+002
2.614167e+002, 3.556138e+002
2.618989e+002, 3.554662e+002
2.623810e+002, 3.557610e+002
2.628631e+002, 3.557937e+002
2.633452e+002, 3.552791e+002
2.638273e+002, 3.542213e+002
2.643094e+002, 3.536549e+002
2.647916e+002, 3.537080e+002
2.652737e+002, 3.540453e+002
2.657558e+002, 3.543957e+002
2.662379e+002, 3.548135e+002
2.667200e+002, 3.550669e+002
2.672021e+002, 3.550889e+002
2.676843e+002, 3.548972e+002
2.681664e+002, 3.546535e+002
2.686485e+002, 3.543300e+002
2.691306e+002, 3.540056e+002
2.696127e+002, 3.536423e+002
2.700948e+002, 3.531034e+002
2.705770e+002, 3.531822e+002
2.710591e+002, 3.542894e+002
2.715412e+002, 3.560869e+002
2.720233e+002, 3.569042e+002
2.725054e+002, 3.564888e+002
2.729875e+002, 3.557227e+002
2.734697e+002, 3.552364e+002
2.739518e+002, 3.550817e+002
2.744339e+002, 3.548246e+002
2.749160e+002, 3.544077e+002
2.753981e+002, 3.538631e+002
2.758802e+002, 3.531866e+002
2.763624e+002, 3.523027e+002
2.768445e+002, 3.516378e+002
2.773266e+002, 3.515894e+002
2.778087e+002, 3.522154e+002
2.782908e+002, 3.526330e+002
2.787729e+002, 3.527791e+002
2.792551e+002, 3.526766e+002
2.797372e+002, 3.523226e+002
2.802193e+002, 3.516877e+002
2.807014e+002, 3.509928e+002
2.811835e+002, 3.502710e+002
2.816656e+002, 3.495269e+002
2.821478e+002, 3.491781e+002
2.826299e+002, 3.494308e+002
2.831120e+002, 3.497012e+002
2.835941e+002, 3.487860e+002
2.840762e+002, 3.466141e+002
2.845583e+002, 3.445961e+002
2.850405e+002, 3.433713e+002
2.855226e+002, 3.428816e+002
2.860047e+002, 3.427031e+002
2.864868e+002, 3.429299e+002
2.869689e+002, 3.431423e+002
2.874510e+002, 3.425694e+002
2.879332e+002, 3.412614e+002
2.884153e+002, 3.402780e+002
2.888974e+002, 3.402900e+002
2.893795e+002, 3.409765e+002
2.898616e+002, 3.410707e+002
2.903438e+002, 3.405080e+002
2.908259e+002, 3.397933e+002
2.913080e+002, 3.396110e+002
2.917901e+002, 3.398395e+002
2.922722e+002, 3.397167e+002
2.927543e+002, 3.388198e+002
2.932365e+002, 3.374933e+002
2.937186e+002, 3.365444e+002
2.942007e+002, 3.359848e+002
2.946828e+002, 3.355772e+002
2.951649e+002, 3.350436e+002
2.956470e+002, 3.344820e+002
2.961292e+002, 3.342433e+002
2.966113e+002, 3.346017e+002
2.970934e+002, 3.351298e+002
2.975755e+002, 3.350804e+002
2.980576e+002, 3.344987e+002
2.985397e+002, 3.338729e+002
2.990219e+002, 3.335160e+002
2.995040e+002, 3.333770e+002
2.999861e+002, 3.333573e+002
3.004682e+002, 3.334554e+002
3.009503e+002, 3.336384e+002
3.014324e+002, 3.339834e+002
3.019146e+002, 3.344247e+002
3.023967e+002, 3.346919e+002
3.028788e+002, 3.344403e+002
3.033609e+002, 3.339646e+002
3.038430e+002, 3.336933e+002
3.043251e+002, 3.337031e+002
3.048073e+002, 3.338466e+002
3.052894e+002, 3.340177e+002
3.057715e+002, 3.342152e+002
3.062536e+002, 3.344449e+002
3.067357e+002, 3.348006e+002
3.072178e+002, 3.351324e+002
3.077000e+002, 3.352245e+002
3.081821e+002, 3.350287e+002
3.086642e+002, 3.348590e+002
3.091463e+002, 3.350441e+002
3.096284e+002, 3.353863e+002
3.101105e+002, 3.355822e+002
3.105927e+002, 3.353441e+002
3.110748e+002, 3.350236e+002
3.115569e+002, 3.349193e+002
3.120390e+002, 3.350349e+002
3.125211e+002, 3.350477e+002
3.130032e+002, 3.346954e+002
3.134854e+002, 3.341806e+002
3.139675e+002, 3.337224e+002
3.144496e+002, 3.335864e+002
3.149317e+002, 3.333613e+002
3.154138e+002, 3.326886e+002
3.158959e+002, 3.316743e+002
3.163781e+002, 3.309294e+002
3.168602e+002, 3.310443e+002
3.173423e+002, 3.313554e+002
3.178244e+002, 3.313701e+002
3.183065e+002, 3.307880e+002
3.187886e+002, 3.301758e+002
3.192708e+002, 3.297383e+002
3.197529e+002, 3.294160e+002
3.202350e+002, 3.290403e+002
3.207171e+002, 3.284965e+002
3.211992e+002, 3.279351e+002
3.216813e+002, 3.274653e+002
3.221635e+002, 3.272425e+002
3.226456e+002, 3.267732e+002
3.231277e+002, 3.255699e+002
3.236098e+002, 3.241165e+002
3.240919e+002, 3.232210e+002
3.245740e+002, 3.237369e+002
3.250562e+002, 3.241711e+002
3.255383e+002, 3.239752e+002
3.260204e+002, 3.229021e+002
3.265025e+002, 3.221143e+002
3.269846e+002, 3.219998e+002
3.274667e+002, 3.220840e+002
3.279489e+002, 3.218608e+002
3.284310e+002, 3.210690e+002
3.289131e+002, 3.202650e+002
3.293952e+002, 3.194741e+002
3.298773e+002, 3.186941e+002
3.303594e+002, 3.181437e+002
3.308416e+002, 3.180633e+002
3.313237e+002, 3.180179e+002
3.318058e+002, 3.176552e+002
3.322879e+002, 3.164763e+002
3.327700e+002, 3.158503e+002
3.332521e+002, 3.161201e+002
3.337343e+002, 3.170590e+002
3.342164e+002, 3.175781e+002
3.346985e+002, 3.175641e+002
3.351806e+002, 3.172924e+002
3.356627e+002, 3.168766e+002
3.361448e+002, 3.162762e+002
3.366270e+002, 3.156123e+002
3.371091e+002, 3.147276e+002
3.375912e+002, 3.139093e+002
3.380733e+002, 3.138900e+002
3.385554e+002, 3.149707e+002
3.390375e+002, 3.158789e+002
3.395197e+002, 3.160215e+002
3.400018e+002, 3.153488e+002
3.404839e+002, 3.148247e+002
3.409660e+002, 3.144512e+002
3.414481e+002, 3.142426e+002
3.419302e+002, 3.143242e+002
3.424124e+002, 3.147296e+002
3.428945e+002, 3.149461e+002
3.433766e+002, 3.147524e+002
3.438587e+002, 3.142496e+002
3.443408e+002, 3.138676e+002
3.448229e+002, 3.136058e+002
3.453051e+002, 3.134794e+002
3.457872e+002, 3.135988e+002
3.462693e+002, 3.139128e+002
3.467514e+002, 3.140658e+002
3.472335e+002, 3.139447e+002
3.477156e+002, 3.136809e+002
3.481978e+002, 3.134600e+002
3.486799e+002, 3.132939e+002
3.491620e+002, 3.133018e+002
3.496441e+002, 3.137694e+002
3.501262e+002, 3.144627e+002
3.506083e+002, 3.148116e+002
3.510905e+002, 3.147254e+002
3.515726e+002, 3.143900e+002
3.520547e+002, 3.138069e+002
3.525368e+002, 3.131106e+002
3.530189e+002, 3.127111e+002
3.535010e+002, 3.128539e+002
3.539832e+002, 3.133857e+002
3.544653e+002, 3.142798e+002
3.549474e+002, 3.155600e+002
3.554295e+002, 3.166650e+002
3.559116e+002, 3.170360e+002
3.563937e+002, 3.169743e+002
3.568759e+002, 3.169277e+002
3.573580e+002, 3.169890e+002
3.578401e+002, 3.171787e+002
3.583222e+002, 3.176108e+002
3.588043e+002, 3.182379e+002
3.592864e+002, 3.187518e+002
3.597686e+002, 3.187469e+002
3.602507e+002, 3.186874e+002
3.607328e+002, 3.189969e+002
3.612149e+002, 3.199968e+002
3.616970e+002, 3.209900e+002
3.621791e+002, 3.216881e+002
3.626613e+002, 3.221706e+002
3.631434e+002, 3.226240e+002
3.636255e+002, 3.230372e+002
3.641076e+002, 3.234844e+002
3.645897e+002, 3.240189e+002
3.650718e+002, 3.246691e+002
3.655540e+002, 3.252838e+002
3.660361e+002, 3.258820e+002
3.665182e+002, 3.264150e+002
3.670003e+002, 3.268248e+002
3.674824e+002, 3.267617e+002
3.679645e+002, 3.269341e+002
3.684467e+002, 3.276808e+002
3.689288e+002, 3.290367e+002
3.694109e+002, 3.299454e+002
3.698930e+002, 3.300362e+002
3.703751e+002, 3.299762e+002
3.708572e+002, 3.301931e+002
3.713394e+002, 3.306281e+002
3.718215e+002, 3.314737e+002
3.723036e+002, 3.330436e+002
3.727857e+002, 3.350277e+002
3.732678e+002, 3.362401e+002
3.737499e+002, 3.361609e+002
3.742321e+002, 3.362420e+002
3.747142e+002, 3.372451e+002
3.751963e+002, 3.394616e+002
3.756784e+002, 3.413716e+002
3.761605e+002, 3.429142e+002
3.766426e+002, 3.442036e+002
3.771248e+002, 3.453040e+002
3.776069e+002, 3.461797e+002
3.780890e+002, 3.471277e+002
3.785711e+002, 3.481577e+002
3.790532e+002, 3.493216e+002
3.795353e+002, 3.510518e+002
3.800175e+002, 3.534726e+002
3.804996e+002, 3.559218e+002
3.809817e+002, 3.577057e+002
3.814638e+002, 3.588956e+002
3.819459e+002, 3.601125e+002
3.824280e+002, 3.613893e+002
3.829102e+002, 3.628621e+002
3.833923e+002, 3.649874e+002
3.838744e+002, 3.676989e+002
3.843565e+002, 3.701626e+002
3.848386e+002, 3.715471e+002
3.853207e+002, 3.723410e+002
3.858029e+002, 3.735382e+002
3.862850e+002, 3.753031e+002
3.867671e+002, 3.771719e+002
3.872492e+002, 3.787679e+002
3.877313e+002, 3.801187e+002
3.882134e+002, 3.812545e+002
3.886956e+002, 3.820738e+002
3.891777e+002, 3.827513e+002
3.896598e+002, 3.834935e+002
3.901419e+002, 3.842897e+002
3.906240e+002, 3.849300e+002
3.911061e+002, 3.852614e+002
3.915883e+002, 3.853945e+002
3.920704e+002, 3.854448e+002
3.925525e+002, 3.854356e+002
3.930346e+002, 3.853707e+002
3.935167e+002, 3.853837e+002
3.939988e+002, 3.853613e+002
3.944810e+002, 3.849861e+002
3.949631e+002, 3.838336e+002
3.954452e+002, 3.825451e+002
3.959273e+002, 3.813860e+002
3.964094e+002, 3.803219e+002
3.968915e+002, 3.795938e+002
3.973737e+002, 3.797985e+002
3.978558e+002, 3.801754e+002
3.983379e+002, 3.797869e+002
3.988200e+002, 3.774511e+002
3.993021e+002, 3.754886e+002
3.997842e+002, 3.744606e+002
4.002664e+002, 3.743596e+002
4.007485e+002, 3.740938e+002
4.012306e+002, 3.735150e+002
4.017127e+002, 3.729095e+002
4.021948e+002, 3.725185e+002
4.026769e+002, 3.727030e+002
4.031591e+002, 3.722724e+002
4.036412e+002, 3.709305e+002
