##NAMES=Tundrite-(Nd)
##RRUFFID=R130565
##IDEAL CHEMISTRY=Na_2_Nd^3+^_2_Ti^4+^O_2_(SiO_4_)(CO_3_)_2_
##LOCALITY=Ilimaussaq complex, Narsaq, Kitaa, Greenland
##OWNER=RRUFF
##SOURCE=Rock Currier
##DESCRIPTION=Pale tan prismatic crystals associated with green to dark-green prismatic aegirine, white microcline, and pinkish fluorite.
##STATUS=The identification of this mineral has been confirmed only by single crystal X-ray diffraction.
##URL=rruff.info/R130565
8.813672e+001, 3.292269e+002
8.861884e+001, 3.320557e+002
8.910095e+001, 3.356796e+002
8.958307e+001, 3.414421e+002
9.006519e+001, 3.491117e+002
9.054730e+001, 3.578246e+002
9.102942e+001, 3.686214e+002
9.151154e+001, 3.787240e+002
9.199365e+001, 3.843598e+002
9.247577e+001, 3.863078e+002
9.295789e+001, 3.881598e+002
9.344000e+001, 3.928475e+002
9.392212e+001, 3.991069e+002
9.440424e+001, 4.043163e+002
9.488635e+001, 4.082628e+002
9.536847e+001, 4.116509e+002
9.585059e+001, 4.155249e+002
9.633270e+001, 4.198427e+002
9.681482e+001, 4.247358e+002
9.729694e+001, 4.301091e+002
9.777905e+001, 4.359743e+002
9.826117e+001, 4.429657e+002
9.874329e+001, 4.516729e+002
9.922540e+001, 4.616948e+002
9.970752e+001, 4.702509e+002
1.001896e+002, 4.767592e+002
1.006718e+002, 4.828121e+002
1.011539e+002, 4.903318e+002
1.016360e+002, 4.996074e+002
1.021181e+002, 5.093988e+002
1.026002e+002, 5.191199e+002
1.030823e+002, 5.285577e+002
1.035645e+002, 5.390945e+002
1.040466e+002, 5.506599e+002
1.045287e+002, 5.633933e+002
1.050108e+002, 5.779948e+002
1.054929e+002, 5.951087e+002
1.059750e+002, 6.130261e+002
1.064572e+002, 6.313619e+002
1.069393e+002, 6.526640e+002
1.074214e+002, 6.699198e+002
1.079035e+002, 6.821161e+002
1.083856e+002, 6.903510e+002
1.088677e+002, 6.978658e+002
1.093499e+002, 7.051735e+002
1.098320e+002, 7.115625e+002
1.103141e+002, 7.167340e+002
1.107962e+002, 7.202840e+002
1.112783e+002, 7.232339e+002
1.117604e+002, 7.259450e+002
1.122426e+002, 7.283281e+002
1.127247e+002, 7.294876e+002
1.132068e+002, 7.285078e+002
1.136889e+002, 7.266737e+002
1.141710e+002, 7.248718e+002
1.146531e+002, 7.234008e+002
1.151353e+002, 7.218494e+002
1.156174e+002, 7.197787e+002
1.160995e+002, 7.171903e+002
1.165816e+002, 7.151986e+002
1.170637e+002, 7.143194e+002
1.175458e+002, 7.141908e+002
1.180280e+002, 7.144169e+002
1.185101e+002, 7.141371e+002
1.189922e+002, 7.146600e+002
1.194743e+002, 7.167676e+002
1.199564e+002, 7.205543e+002
1.204385e+002, 7.255027e+002
1.209207e+002, 7.312396e+002
1.214028e+002, 7.379260e+002
1.218849e+002, 7.458105e+002
1.223670e+002, 7.573192e+002
1.228491e+002, 7.691706e+002
1.233312e+002, 7.774919e+002
1.238134e+002, 7.813090e+002
1.242955e+002, 7.837978e+002
1.247776e+002, 7.875677e+002
1.252597e+002, 7.924055e+002
1.257418e+002, 7.975818e+002
1.262239e+002, 8.028882e+002
1.267061e+002, 8.082516e+002
1.271882e+002, 8.133008e+002
1.276703e+002, 8.179179e+002
1.281524e+002, 8.224750e+002
1.286345e+002, 8.276414e+002
1.291166e+002, 8.333499e+002
1.295988e+002, 8.389415e+002
1.300809e+002, 8.440524e+002
1.305630e+002, 8.486536e+002
1.310451e+002, 8.525558e+002
1.315272e+002, 8.552785e+002
1.320093e+002, 8.575500e+002
1.324915e+002, 8.611343e+002
1.329736e+002, 8.660847e+002
1.334557e+002, 8.717869e+002
1.339378e+002, 8.776428e+002
1.344199e+002, 8.836611e+002
1.349020e+002, 8.900707e+002
1.353842e+002, 8.969078e+002
1.358663e+002, 9.040811e+002
1.363484e+002, 9.118470e+002
1.368305e+002, 9.201690e+002
1.373126e+002, 9.291342e+002
1.377947e+002, 9.393422e+002
1.382769e+002, 9.514119e+002
1.387590e+002, 9.616361e+002
1.392411e+002, 9.686581e+002
1.397232e+002, 9.724965e+002
1.402053e+002, 9.756315e+002
1.406874e+002, 9.779319e+002
1.411696e+002, 9.798134e+002
1.416517e+002, 9.817367e+002
1.421338e+002, 9.836488e+002
1.426159e+002, 9.858903e+002
1.430980e+002, 9.887759e+002
1.435801e+002, 9.925889e+002
1.440623e+002, 9.956940e+002
1.445444e+002, 9.974578e+002
1.450265e+002, 9.989469e+002
1.455086e+002, 1.001992e+003
1.459907e+002, 1.007821e+003
1.464728e+002, 1.013683e+003
1.469550e+002, 1.018862e+003
1.474371e+002, 1.023482e+003
1.479192e+002, 1.027059e+003
1.484013e+002, 1.028816e+003
1.488834e+002, 1.029605e+003
1.493655e+002, 1.031359e+003
1.498477e+002, 1.036074e+003
1.503298e+002, 1.040015e+003
1.508119e+002, 1.041846e+003
1.512940e+002, 1.041450e+003
1.517761e+002, 1.039128e+003
1.522583e+002, 1.033894e+003
1.527404e+002, 1.026618e+003
1.532225e+002, 1.019699e+003
1.537046e+002, 1.014081e+003
1.541867e+002, 1.008366e+003
1.546688e+002, 1.001971e+003
1.551510e+002, 9.951847e+002
1.556331e+002, 9.871534e+002
1.561152e+002, 9.776750e+002
1.565973e+002, 9.668498e+002
1.570794e+002, 9.552345e+002
1.575615e+002, 9.419745e+002
1.580437e+002, 9.284431e+002
1.585258e+002, 9.154558e+002
1.590079e+002, 9.034756e+002
1.594900e+002, 8.917611e+002
1.599721e+002, 8.800248e+002
1.604542e+002, 8.683349e+002
1.609364e+002, 8.570850e+002
1.614185e+002, 8.463729e+002
1.619006e+002, 8.361785e+002
1.623827e+002, 8.264849e+002
1.628648e+002, 8.175120e+002
1.633469e+002, 8.088347e+002
1.638291e+002, 8.000262e+002
1.643112e+002, 7.912352e+002
1.647933e+002, 7.831748e+002
1.652754e+002, 7.764752e+002
1.657575e+002, 7.706020e+002
1.662396e+002, 7.649935e+002
1.667218e+002, 7.595637e+002
1.672039e+002, 7.542507e+002
1.676860e+002, 7.487448e+002
1.681681e+002, 7.431217e+002
1.686502e+002, 7.381960e+002
1.691323e+002, 7.345930e+002
1.696145e+002, 7.320330e+002
1.700966e+002, 7.301636e+002
1.705787e+002, 7.294717e+002
1.710608e+002, 7.290356e+002
1.715429e+002, 7.277469e+002
1.720250e+002, 7.255216e+002
1.725072e+002, 7.238629e+002
1.729893e+002, 7.245094e+002
1.734714e+002, 7.264797e+002
1.739535e+002, 7.279577e+002
1.744356e+002, 7.275380e+002
1.749177e+002, 7.264656e+002
1.753999e+002, 7.262584e+002
1.758820e+002, 7.270246e+002
1.763641e+002, 7.280881e+002
1.768462e+002, 7.291750e+002
1.773283e+002, 7.301184e+002
1.778104e+002, 7.304971e+002
1.782926e+002, 7.301761e+002
1.787747e+002, 7.291306e+002
1.792568e+002, 7.270859e+002
1.797389e+002, 7.239268e+002
1.802210e+002, 7.204797e+002
1.807031e+002, 7.176712e+002
1.811853e+002, 7.153906e+002
1.816674e+002, 7.133412e+002
1.821495e+002, 7.115530e+002
1.826316e+002, 7.098884e+002
1.831137e+002, 7.079438e+002
1.835958e+002, 7.055782e+002
1.840780e+002, 7.033953e+002
1.845601e+002, 7.023597e+002
1.850422e+002, 7.023448e+002
1.855243e+002, 7.023162e+002
1.860064e+002, 7.015149e+002
1.864885e+002, 7.002383e+002
1.869707e+002, 6.995721e+002
1.874528e+002, 6.996345e+002
1.879349e+002, 7.001752e+002
1.884170e+002, 7.008300e+002
1.888991e+002, 7.016057e+002
1.893812e+002, 7.026042e+002
1.898634e+002, 7.039504e+002
1.903455e+002, 7.055943e+002
1.908276e+002, 7.072991e+002
1.913097e+002, 7.090942e+002
1.917918e+002, 7.108624e+002
1.922739e+002, 7.123251e+002
1.927561e+002, 7.134774e+002
1.932382e+002, 7.147123e+002
1.937203e+002, 7.165520e+002
1.942024e+002, 7.188867e+002
1.946845e+002, 7.203176e+002
1.951666e+002, 7.206264e+002
1.956488e+002, 7.201549e+002
1.961309e+002, 7.194505e+002
1.966130e+002, 7.184772e+002
1.970951e+002, 7.175131e+002
1.975772e+002, 7.169727e+002
1.980593e+002, 7.168752e+002
1.985415e+002, 7.157716e+002
1.990236e+002, 7.134453e+002
1.995057e+002, 7.102196e+002
1.999878e+002, 7.067462e+002
2.004699e+002, 7.029697e+002
2.009520e+002, 6.992110e+002
2.014342e+002, 6.954815e+002
2.019163e+002, 6.916826e+002
2.023984e+002, 6.889642e+002
2.028805e+002, 6.876658e+002
2.033626e+002, 6.872528e+002
2.038447e+002, 6.863474e+002
2.043269e+002, 6.847942e+002
2.048090e+002, 6.832955e+002
2.052911e+002, 6.824904e+002
2.057732e+002, 6.826090e+002
2.062553e+002, 6.816803e+002
2.067374e+002, 6.790840e+002
2.072196e+002, 6.756956e+002
2.077017e+002, 6.741066e+002
2.081838e+002, 6.748647e+002
2.086659e+002, 6.759189e+002
2.091480e+002, 6.759656e+002
2.096301e+002, 6.746281e+002
2.101123e+002, 6.741288e+002
2.105944e+002, 6.749675e+002
2.110765e+002, 6.765283e+002
2.115586e+002, 6.769772e+002
2.120407e+002, 6.759901e+002
2.125228e+002, 6.746218e+002
2.130050e+002, 6.733875e+002
2.134871e+002, 6.722523e+002
2.139692e+002, 6.714678e+002
2.144513e+002, 6.713583e+002
2.149334e+002, 6.714882e+002
2.154155e+002, 6.704153e+002
2.158977e+002, 6.676190e+002
2.163798e+002, 6.646119e+002
2.168619e+002, 6.622393e+002
2.173440e+002, 6.607264e+002
2.178261e+002, 6.591008e+002
2.183082e+002, 6.571677e+002
2.187904e+002, 6.551412e+002
2.192725e+002, 6.536134e+002
2.197546e+002, 6.523651e+002
2.202367e+002, 6.520287e+002
2.207188e+002, 6.534080e+002
2.212009e+002, 6.581252e+002
2.216831e+002, 6.600097e+002
2.221652e+002, 6.576086e+002
2.226473e+002, 6.526356e+002
2.231294e+002, 6.501709e+002
2.236115e+002, 6.509148e+002
2.240936e+002, 6.529913e+002
2.245758e+002, 6.557051e+002
2.250579e+002, 6.594835e+002
2.255400e+002, 6.628832e+002
2.260221e+002, 6.660781e+002
2.265042e+002, 6.688428e+002
2.269863e+002, 6.702245e+002
2.274685e+002, 6.690496e+002
2.279506e+002, 6.683412e+002
2.284327e+002, 6.696996e+002
2.289148e+002, 6.746445e+002
2.293969e+002, 6.780391e+002
2.298790e+002, 6.789669e+002
2.303612e+002, 6.785751e+002
2.308433e+002, 6.798574e+002
2.313254e+002, 6.836855e+002
2.318075e+002, 6.878755e+002
2.322896e+002, 6.914148e+002
2.327717e+002, 6.936804e+002
2.332539e+002, 6.968469e+002
2.337360e+002, 7.013192e+002
2.342181e+002, 7.064789e+002
2.347002e+002, 7.109070e+002
2.351823e+002, 7.140862e+002
2.356644e+002, 7.172472e+002
2.361466e+002, 7.209781e+002
2.366287e+002, 7.257667e+002
2.371108e+002, 7.297038e+002
2.375929e+002, 7.322422e+002
2.380750e+002, 7.341010e+002
2.385571e+002, 7.367703e+002
2.390393e+002, 7.406746e+002
2.395214e+002, 7.447346e+002
2.400035e+002, 7.486521e+002
2.404856e+002, 7.526713e+002
2.409677e+002, 7.558873e+002
2.414498e+002, 7.578132e+002
2.419320e+002, 7.592081e+002
2.424141e+002, 7.615141e+002
2.428962e+002, 7.652987e+002
2.433783e+002, 7.691071e+002
2.438604e+002, 7.724516e+002
2.443425e+002, 7.752120e+002
2.448247e+002, 7.779636e+002
2.453068e+002, 7.805143e+002
2.457889e+002, 7.831820e+002
2.462710e+002, 7.865762e+002
2.467531e+002, 7.911036e+002
2.472352e+002, 7.956384e+002
2.477174e+002, 7.997130e+002
2.481995e+002, 8.030203e+002
2.486816e+002, 8.071843e+002
2.491637e+002, 8.123436e+002
2.496458e+002, 8.182616e+002
2.501279e+002, 8.246071e+002
2.506101e+002, 8.317160e+002
2.510922e+002, 8.387028e+002
2.515743e+002, 8.452112e+002
2.520564e+002, 8.511937e+002
2.525385e+002, 8.572656e+002
2.530206e+002, 8.633586e+002
2.535028e+002, 8.696574e+002
2.539849e+002, 8.762797e+002
2.544670e+002, 8.835677e+002
2.549491e+002, 8.906354e+002
2.554312e+002, 8.972795e+002
2.559133e+002, 9.034264e+002
2.563955e+002, 9.094393e+002
2.568776e+002, 9.151182e+002
2.573597e+002, 9.209167e+002
2.578418e+002, 9.274395e+002
2.583239e+002, 9.352561e+002
2.588061e+002, 9.425568e+002
2.592882e+002, 9.489714e+002
2.597703e+002, 9.545318e+002
2.602524e+002, 9.599256e+002
2.607345e+002, 9.654053e+002
2.612166e+002, 9.704323e+002
2.616988e+002, 9.744951e+002
2.621809e+002, 9.771559e+002
2.626630e+002, 9.799745e+002
2.631451e+002, 9.835342e+002
2.636272e+002, 9.876309e+002
2.641093e+002, 9.899033e+002
2.645915e+002, 9.897305e+002
2.650736e+002, 9.888893e+002
2.655557e+002, 9.891781e+002
2.660378e+002, 9.915544e+002
2.665199e+002, 9.916306e+002
2.670020e+002, 9.884762e+002
2.674842e+002, 9.825435e+002
2.679663e+002, 9.760895e+002
2.684484e+002, 9.689222e+002
2.689305e+002, 9.616965e+002
2.694126e+002, 9.550111e+002
2.698947e+002, 9.489238e+002
2.703769e+002, 9.426843e+002
2.708590e+002, 9.360883e+002
2.713411e+002, 9.292832e+002
2.718232e+002, 9.230922e+002
2.723053e+002, 9.177731e+002
2.727874e+002, 9.122977e+002
2.732696e+002, 9.056552e+002
2.737517e+002, 8.974847e+002
2.742338e+002, 8.906433e+002
2.747159e+002, 8.854763e+002
2.751980e+002, 8.814949e+002
2.756801e+002, 8.776061e+002
2.761623e+002, 8.736644e+002
2.766444e+002, 8.704965e+002
2.771265e+002, 8.685884e+002
2.776086e+002, 8.679749e+002
2.780907e+002, 8.680947e+002
2.785728e+002, 8.690921e+002
2.790550e+002, 8.705607e+002
2.795371e+002, 8.715906e+002
2.800192e+002, 8.720448e+002
2.805013e+002, 8.731776e+002
2.809834e+002, 8.758320e+002
2.814655e+002, 8.799573e+002
2.819477e+002, 8.836215e+002
2.824298e+002, 8.866725e+002
2.829119e+002, 8.895353e+002
2.833940e+002, 8.927050e+002
2.838761e+002, 8.961705e+002
2.843582e+002, 8.999467e+002
2.848404e+002, 9.042381e+002
2.853225e+002, 9.088864e+002
2.858046e+002, 9.128098e+002
2.862867e+002, 9.158094e+002
2.867688e+002, 9.188157e+002
2.872509e+002, 9.230208e+002
2.877331e+002, 9.283409e+002
2.882152e+002, 9.335189e+002
2.886973e+002, 9.377261e+002
2.891794e+002, 9.416561e+002
2.896615e+002, 9.478681e+002
2.901436e+002, 9.565964e+002
2.906258e+002, 9.655677e+002
2.911079e+002, 9.723956e+002
2.915900e+002, 9.775482e+002
2.920721e+002, 9.836057e+002
2.925542e+002, 9.914885e+002
2.930363e+002, 1.000342e+003
2.935185e+002, 1.008258e+003
2.940006e+002, 1.015324e+003
2.944827e+002, 1.022362e+003
2.949648e+002, 1.030175e+003
2.954469e+002, 1.038638e+003
2.959290e+002, 1.047358e+003
2.964112e+002, 1.056672e+003
2.968933e+002, 1.065650e+003
2.973754e+002, 1.072624e+003
2.978575e+002, 1.077741e+003
2.983396e+002, 1.082133e+003
2.988217e+002, 1.086911e+003
2.993039e+002, 1.091386e+003
2.997860e+002, 1.094034e+003
3.002681e+002, 1.094555e+003
3.007502e+002, 1.093605e+003
3.012323e+002, 1.092108e+003
3.017144e+002, 1.089812e+003
3.021966e+002, 1.085996e+003
3.026787e+002, 1.080091e+003
3.031608e+002, 1.072477e+003
3.036429e+002, 1.063347e+003
3.041250e+002, 1.052714e+003
3.046071e+002, 1.041200e+003
3.050893e+002, 1.029760e+003
3.055714e+002, 1.017861e+003
3.060535e+002, 1.004845e+003
3.065356e+002, 9.893447e+002
3.070177e+002, 9.730602e+002
3.074998e+002, 9.578410e+002
3.079820e+002, 9.436138e+002
3.084641e+002, 9.298207e+002
3.089462e+002, 9.154810e+002
3.094283e+002, 9.013959e+002
3.099104e+002, 8.888380e+002
3.103925e+002, 8.793954e+002
3.108747e+002, 8.708863e+002
3.113568e+002, 8.618780e+002
3.118389e+002, 8.525139e+002
3.123210e+002, 8.438644e+002
3.128031e+002, 8.364423e+002
3.132852e+002, 8.299656e+002
3.137674e+002, 8.241227e+002
3.142495e+002, 8.190539e+002
3.147316e+002, 8.144102e+002
3.152137e+002, 8.099564e+002
3.156958e+002, 8.058038e+002
3.161779e+002, 8.023348e+002
3.166601e+002, 7.998818e+002
3.171422e+002, 7.980336e+002
3.176243e+002, 7.965727e+002
3.181064e+002, 7.955413e+002
3.185885e+002, 7.947246e+002
3.190706e+002, 7.937783e+002
3.195528e+002, 7.930061e+002
3.200349e+002, 7.930016e+002
3.205170e+002, 7.948522e+002
3.209991e+002, 7.967445e+002
3.214812e+002, 7.975499e+002
3.219633e+002, 7.965032e+002
3.224455e+002, 7.968974e+002
3.229276e+002, 8.006248e+002
3.234097e+002, 8.057474e+002
3.238918e+002, 8.098855e+002
3.243739e+002, 8.116733e+002
3.248560e+002, 8.134379e+002
3.253382e+002, 8.155823e+002
3.258203e+002, 8.180994e+002
3.263024e+002, 8.214355e+002
3.267845e+002, 8.263511e+002
3.272666e+002, 8.317307e+002
3.277487e+002, 8.367053e+002
3.282309e+002, 8.405691e+002
3.287130e+002, 8.447957e+002
3.291951e+002, 8.498518e+002
3.296772e+002, 8.555938e+002
3.301593e+002, 8.605546e+002
3.306414e+002, 8.639418e+002
3.311236e+002, 8.672331e+002
3.316057e+002, 8.712631e+002
3.320878e+002, 8.764580e+002
3.325699e+002, 8.816196e+002
3.330520e+002, 8.866027e+002
3.335341e+002, 8.915012e+002
3.340163e+002, 8.966882e+002
3.344984e+002, 9.027936e+002
3.349805e+002, 9.080302e+002
3.354626e+002, 9.114267e+002
3.359447e+002, 9.122928e+002
3.364268e+002, 9.141574e+002
3.369090e+002, 9.176070e+002
3.373911e+002, 9.214941e+002
3.378732e+002, 9.239405e+002
3.383553e+002, 9.247244e+002
3.388374e+002, 9.248937e+002
3.393195e+002, 9.248637e+002
3.398017e+002, 9.246174e+002
3.402838e+002, 9.234308e+002
3.407659e+002, 9.213572e+002
3.412480e+002, 9.182178e+002
3.417301e+002, 9.136537e+002
3.422122e+002, 9.076340e+002
3.426944e+002, 9.008353e+002
3.431765e+002, 8.932562e+002
3.436586e+002, 8.850538e+002
3.441407e+002, 8.771057e+002
3.446228e+002, 8.694896e+002
3.451049e+002, 8.615377e+002
3.455871e+002, 8.524778e+002
3.460692e+002, 8.424391e+002
3.465513e+002, 8.333087e+002
3.470334e+002, 8.254988e+002
3.475155e+002, 8.182264e+002
3.479977e+002, 8.102357e+002
3.484798e+002, 8.015756e+002
3.489619e+002, 7.932545e+002
3.494440e+002, 7.860729e+002
3.499261e+002, 7.796096e+002
3.504082e+002, 7.727270e+002
3.508904e+002, 7.652377e+002
3.513725e+002, 7.581573e+002
3.518546e+002, 7.525887e+002
3.523367e+002, 7.482380e+002
3.528188e+002, 7.442574e+002
3.533009e+002, 7.409070e+002
3.537831e+002, 7.374026e+002
3.542652e+002, 7.324475e+002
3.547473e+002, 7.261161e+002
3.552294e+002, 7.200109e+002
3.557115e+002, 7.153049e+002
3.561936e+002, 7.115217e+002
3.566758e+002, 7.080623e+002
3.571579e+002, 7.047236e+002
3.576400e+002, 7.016369e+002
3.581221e+002, 6.990997e+002
3.586042e+002, 6.969622e+002
3.590863e+002, 6.945897e+002
3.595685e+002, 6.913453e+002
3.600506e+002, 6.879541e+002
3.605327e+002, 6.848613e+002
3.610148e+002, 6.819946e+002
3.614969e+002, 6.798463e+002
3.619790e+002, 6.792067e+002
3.624612e+002, 6.793434e+002
3.629433e+002, 6.790035e+002
3.634254e+002, 6.772814e+002
3.639075e+002, 6.754661e+002
3.643896e+002, 6.739576e+002
3.648717e+002, 6.727549e+002
3.653539e+002, 6.720861e+002
3.658360e+002, 6.723799e+002
3.663181e+002, 6.730380e+002
3.668002e+002, 6.735153e+002
3.672823e+002, 6.739667e+002
3.677644e+002, 6.739874e+002
3.682466e+002, 6.730175e+002
3.687287e+002, 6.712271e+002
3.692108e+002, 6.705975e+002
3.696929e+002, 6.718834e+002
3.701750e+002, 6.736694e+002
3.706571e+002, 6.752537e+002
3.711393e+002, 6.766475e+002
3.716214e+002, 6.778450e+002
3.721035e+002, 6.787698e+002
3.725856e+002, 6.795425e+002
3.730677e+002, 6.803605e+002
3.735498e+002, 6.810363e+002
3.740320e+002, 6.821405e+002
3.745141e+002, 6.839290e+002
3.749962e+002, 6.864553e+002
3.754783e+002, 6.891873e+002
3.759604e+002, 6.922347e+002
3.764425e+002, 6.952626e+002
3.769247e+002, 6.976733e+002
3.774068e+002, 6.992513e+002
3.778889e+002, 7.014548e+002
3.783710e+002, 7.048026e+002
3.788531e+002, 7.089894e+002
3.793352e+002, 7.127869e+002
3.798174e+002, 7.161033e+002
3.802995e+002, 7.194352e+002
3.807816e+002, 7.230676e+002
3.812637e+002, 7.270265e+002
3.817458e+002, 7.312827e+002
3.822279e+002, 7.359716e+002
3.827101e+002, 7.407930e+002
3.831922e+002, 7.453129e+002
3.836743e+002, 7.496144e+002
3.841564e+002, 7.539636e+002
3.846385e+002, 7.588162e+002
3.851206e+002, 7.638014e+002
3.856028e+002, 7.680696e+002
3.860849e+002, 7.715305e+002
3.865670e+002, 7.749213e+002
3.870491e+002, 7.793894e+002
3.875312e+002, 7.842839e+002
3.880133e+002, 7.883333e+002
3.884955e+002, 7.905351e+002
3.889776e+002, 7.921433e+002
3.894597e+002, 7.945593e+002
3.899418e+002, 7.975512e+002
3.904239e+002, 7.997350e+002
3.909060e+002, 7.997771e+002
3.913882e+002, 7.988934e+002
3.918703e+002, 7.981060e+002
3.923524e+002, 7.974440e+002
3.928345e+002, 7.972814e+002
3.933166e+002, 7.980972e+002
3.937987e+002, 7.995282e+002
3.942809e+002, 8.008305e+002
3.947630e+002, 8.015369e+002
3.952451e+002, 8.022561e+002
3.957272e+002, 8.032459e+002
3.962093e+002, 8.045381e+002
3.966914e+002, 8.059905e+002
3.971736e+002, 8.079225e+002
3.976557e+002, 8.098283e+002
3.981378e+002, 8.112474e+002
3.986199e+002, 8.111094e+002
3.991020e+002, 8.116110e+002
3.995841e+002, 8.134254e+002
4.000663e+002, 8.162852e+002
4.005484e+002, 8.184006e+002
4.010305e+002, 8.191418e+002
4.015126e+002, 8.198211e+002
