##NAMES=Tundrite-(Ce)
##RRUFFID=R130564
##IDEAL CHEMISTRY=Na_2_Ce^3+^_2_Ti^4+^O_2_SiO_4_(CO_3_)_2_
##LOCALITY=Ilimaussaq complex, Narsaq, Kitaa, Greenland
##OWNER=RRUFF
##SOURCE=Rock Currier
##DESCRIPTION=Aggregates of acicular or bladed yellow crystals associated with albite and aegirine
##STATUS=The identification of this mineral has been confirmed only by single crystal X-ray diffraction.
##URL=rruff.info/R130564
8.813672e+001, 4.217729e+002
8.861884e+001, 4.240343e+002
8.910095e+001, 4.281486e+002
8.958307e+001, 4.368236e+002
9.006519e+001, 4.485321e+002
9.054730e+001, 4.603575e+002
9.102942e+001, 4.729268e+002
9.151154e+001, 4.844748e+002
9.199365e+001, 4.926332e+002
9.247577e+001, 4.979897e+002
9.295789e+001, 5.029287e+002
9.344000e+001, 5.091143e+002
9.392212e+001, 5.157422e+002
9.440424e+001, 5.218433e+002
9.488635e+001, 5.276705e+002
9.536847e+001, 5.338166e+002
9.585059e+001, 5.412025e+002
9.633270e+001, 5.498239e+002
9.681482e+001, 5.591860e+002
9.729694e+001, 5.685409e+002
9.777905e+001, 5.779290e+002
9.826117e+001, 5.884542e+002
9.874329e+001, 6.006365e+002
9.922540e+001, 6.141461e+002
9.970752e+001, 6.271068e+002
1.001896e+002, 6.391201e+002
1.006718e+002, 6.510277e+002
1.011539e+002, 6.636286e+002
1.016360e+002, 6.769577e+002
1.021181e+002, 6.910720e+002
1.026002e+002, 7.057174e+002
1.030823e+002, 7.206726e+002
1.035645e+002, 7.374032e+002
1.040466e+002, 7.564893e+002
1.045287e+002, 7.770438e+002
1.050108e+002, 7.981402e+002
1.054929e+002, 8.207570e+002
1.059750e+002, 8.424300e+002
1.064572e+002, 8.622730e+002
1.069393e+002, 8.811357e+002
1.074214e+002, 8.969715e+002
1.079035e+002, 9.094951e+002
1.083856e+002, 9.191948e+002
1.088677e+002, 9.271215e+002
1.093499e+002, 9.328459e+002
1.098320e+002, 9.373359e+002
1.103141e+002, 9.410144e+002
1.107962e+002, 9.443738e+002
1.112783e+002, 9.465305e+002
1.117604e+002, 9.472916e+002
1.122426e+002, 9.467636e+002
1.127247e+002, 9.455248e+002
1.132068e+002, 9.427645e+002
1.136889e+002, 9.397857e+002
1.141710e+002, 9.375081e+002
1.146531e+002, 9.374954e+002
1.151353e+002, 9.368720e+002
1.156174e+002, 9.341111e+002
1.160995e+002, 9.292058e+002
1.165816e+002, 9.252178e+002
1.170637e+002, 9.240309e+002
1.175458e+002, 9.240854e+002
1.180280e+002, 9.236774e+002
1.185101e+002, 9.214767e+002
1.189922e+002, 9.190646e+002
1.194743e+002, 9.171365e+002
1.199564e+002, 9.156561e+002
1.204385e+002, 9.151695e+002
1.209207e+002, 9.159789e+002
1.214028e+002, 9.180114e+002
1.218849e+002, 9.211261e+002
1.223670e+002, 9.274668e+002
1.228491e+002, 9.339016e+002
1.233312e+002, 9.365965e+002
1.238134e+002, 9.343997e+002
1.242955e+002, 9.312258e+002
1.247776e+002, 9.306640e+002
1.252597e+002, 9.321989e+002
1.257418e+002, 9.340836e+002
1.262239e+002, 9.350794e+002
1.267061e+002, 9.357363e+002
1.271882e+002, 9.370849e+002
1.276703e+002, 9.393953e+002
1.281524e+002, 9.422635e+002
1.286345e+002, 9.452441e+002
1.291166e+002, 9.483218e+002
1.295988e+002, 9.513925e+002
1.300809e+002, 9.546215e+002
1.305630e+002, 9.578367e+002
1.310451e+002, 9.602205e+002
1.315272e+002, 9.611301e+002
1.320093e+002, 9.614297e+002
1.324915e+002, 9.633344e+002
1.329736e+002, 9.669529e+002
1.334557e+002, 9.709943e+002
1.339378e+002, 9.739766e+002
1.344199e+002, 9.759187e+002
1.349020e+002, 9.787103e+002
1.353842e+002, 9.831404e+002
1.358663e+002, 9.887250e+002
1.363484e+002, 9.932479e+002
1.368305e+002, 9.963202e+002
1.373126e+002, 9.992977e+002
1.377947e+002, 1.003990e+003
1.382769e+002, 1.010930e+003
1.387590e+002, 1.016914e+003
1.392411e+002, 1.021222e+003
1.397232e+002, 1.023881e+003
1.402053e+002, 1.024122e+003
1.406874e+002, 1.021006e+003
1.411696e+002, 1.016745e+003
1.416517e+002, 1.014422e+003
1.421338e+002, 1.014827e+003
1.426159e+002, 1.015494e+003
1.430980e+002, 1.015851e+003
1.435801e+002, 1.015975e+003
1.440623e+002, 1.015577e+003
1.445444e+002, 1.014418e+003
1.450265e+002, 1.012949e+003
1.455086e+002, 1.011898e+003
1.459907e+002, 1.011145e+003
1.464728e+002, 1.011043e+003
1.469550e+002, 1.011946e+003
1.474371e+002, 1.014943e+003
1.479192e+002, 1.016449e+003
1.484013e+002, 1.015472e+003
1.488834e+002, 1.013116e+003
1.493655e+002, 1.011784e+003
1.498477e+002, 1.011950e+003
1.503298e+002, 1.012738e+003
1.508119e+002, 1.013958e+003
1.512940e+002, 1.017313e+003
1.517761e+002, 1.018585e+003
1.522583e+002, 1.016314e+003
1.527404e+002, 1.011683e+003
1.532225e+002, 1.008017e+003
1.537046e+002, 1.007191e+003
1.541867e+002, 1.006250e+003
1.546688e+002, 1.003859e+003
1.551510e+002, 9.993319e+002
1.556331e+002, 9.939644e+002
1.561152e+002, 9.876590e+002
1.565973e+002, 9.805904e+002
1.570794e+002, 9.735634e+002
1.575615e+002, 9.670338e+002
1.580437e+002, 9.603671e+002
1.585258e+002, 9.531553e+002
1.590079e+002, 9.450908e+002
1.594900e+002, 9.367071e+002
1.599721e+002, 9.277945e+002
1.604542e+002, 9.185162e+002
1.609364e+002, 9.098156e+002
1.614185e+002, 9.027945e+002
1.619006e+002, 8.961252e+002
1.623827e+002, 8.887391e+002
1.628648e+002, 8.793259e+002
1.633469e+002, 8.700045e+002
1.638291e+002, 8.619285e+002
1.643112e+002, 8.550330e+002
1.647933e+002, 8.478753e+002
1.652754e+002, 8.393273e+002
1.657575e+002, 8.303116e+002
1.662396e+002, 8.217978e+002
1.667218e+002, 8.142458e+002
1.672039e+002, 8.072128e+002
1.676860e+002, 8.003932e+002
1.681681e+002, 7.938475e+002
1.686502e+002, 7.876581e+002
1.691323e+002, 7.819897e+002
1.696145e+002, 7.767552e+002
1.700966e+002, 7.718723e+002
1.705787e+002, 7.674983e+002
1.710608e+002, 7.633503e+002
1.715429e+002, 7.592471e+002
1.720250e+002, 7.551552e+002
1.725072e+002, 7.510222e+002
1.729893e+002, 7.464772e+002
1.734714e+002, 7.418017e+002
1.739535e+002, 7.375135e+002
1.744356e+002, 7.336920e+002
1.749177e+002, 7.304551e+002
1.753999e+002, 7.280964e+002
1.758820e+002, 7.266815e+002
1.763641e+002, 7.254022e+002
1.768462e+002, 7.234669e+002
1.773283e+002, 7.210357e+002
1.778104e+002, 7.185201e+002
1.782926e+002, 7.159209e+002
1.787747e+002, 7.134177e+002
1.792568e+002, 7.113186e+002
1.797389e+002, 7.096572e+002
1.802210e+002, 7.083329e+002
1.807031e+002, 7.076243e+002
1.811853e+002, 7.072988e+002
1.816674e+002, 7.065303e+002
1.821495e+002, 7.044680e+002
1.826316e+002, 7.016857e+002
1.831137e+002, 6.996042e+002
1.835958e+002, 6.983379e+002
1.840780e+002, 6.975832e+002
1.845601e+002, 6.971105e+002
1.850422e+002, 6.968893e+002
1.855243e+002, 6.965912e+002
1.860064e+002, 6.960577e+002
1.864885e+002, 6.953264e+002
1.869707e+002, 6.945621e+002
1.874528e+002, 6.938151e+002
1.879349e+002, 6.929247e+002
1.884170e+002, 6.913550e+002
1.888991e+002, 6.891664e+002
1.893812e+002, 6.874213e+002
1.898634e+002, 6.871290e+002
1.903455e+002, 6.879650e+002
1.908276e+002, 6.877627e+002
1.913097e+002, 6.861351e+002
1.917918e+002, 6.839342e+002
1.922739e+002, 6.825033e+002
1.927561e+002, 6.818275e+002
1.932382e+002, 6.817597e+002
1.937203e+002, 6.826830e+002
1.942024e+002, 6.844539e+002
1.946845e+002, 6.851165e+002
1.951666e+002, 6.843503e+002
1.956488e+002, 6.826947e+002
1.961309e+002, 6.811047e+002
1.966130e+002, 6.795604e+002
1.970951e+002, 6.781072e+002
1.975772e+002, 6.766246e+002
1.980593e+002, 6.751084e+002
1.985415e+002, 6.742973e+002
1.990236e+002, 6.744914e+002
1.995057e+002, 6.751202e+002
1.999878e+002, 6.748419e+002
2.004699e+002, 6.735299e+002
2.009520e+002, 6.719403e+002
2.014342e+002, 6.705368e+002
2.019163e+002, 6.693451e+002
2.023984e+002, 6.678941e+002
2.028805e+002, 6.660293e+002
2.033626e+002, 6.639944e+002
2.038447e+002, 6.623977e+002
2.043269e+002, 6.612831e+002
2.048090e+002, 6.604380e+002
2.052911e+002, 6.597646e+002
2.057732e+002, 6.592577e+002
2.062553e+002, 6.589576e+002
2.067374e+002, 6.589626e+002
2.072196e+002, 6.591165e+002
2.077017e+002, 6.589628e+002
2.081838e+002, 6.584203e+002
2.086659e+002, 6.577994e+002
2.091480e+002, 6.572006e+002
2.096301e+002, 6.565370e+002
2.101123e+002, 6.563531e+002
2.105944e+002, 6.569092e+002
2.110765e+002, 6.578478e+002
2.115586e+002, 6.580661e+002
2.120407e+002, 6.572919e+002
2.125228e+002, 6.564127e+002
2.130050e+002, 6.559757e+002
2.134871e+002, 6.561625e+002
2.139692e+002, 6.561183e+002
2.144513e+002, 6.557869e+002
2.149334e+002, 6.551927e+002
2.154155e+002, 6.543776e+002
2.158977e+002, 6.532651e+002
2.163798e+002, 6.520551e+002
2.168619e+002, 6.506031e+002
2.173440e+002, 6.483036e+002
2.178261e+002, 6.478039e+002
2.183082e+002, 6.500457e+002
2.187904e+002, 6.539090e+002
2.192725e+002, 6.558348e+002
2.197546e+002, 6.549342e+002
2.202367e+002, 6.536525e+002
2.207188e+002, 6.532198e+002
2.212009e+002, 6.538616e+002
2.216831e+002, 6.547889e+002
2.221652e+002, 6.561055e+002
2.226473e+002, 6.576758e+002
2.231294e+002, 6.590052e+002
2.236115e+002, 6.598898e+002
2.240936e+002, 6.609213e+002
2.245758e+002, 6.624191e+002
2.250579e+002, 6.645262e+002
2.255400e+002, 6.667430e+002
2.260221e+002, 6.689617e+002
2.265042e+002, 6.713287e+002
2.269863e+002, 6.741848e+002
2.274685e+002, 6.777133e+002
2.279506e+002, 6.815010e+002
2.284327e+002, 6.854283e+002
2.289148e+002, 6.898220e+002
2.293969e+002, 6.936322e+002
2.298790e+002, 6.965480e+002
2.303612e+002, 6.989548e+002
2.308433e+002, 7.017795e+002
2.313254e+002, 7.049565e+002
2.318075e+002, 7.086837e+002
2.322896e+002, 7.131454e+002
2.327717e+002, 7.187409e+002
2.332539e+002, 7.240497e+002
2.337360e+002, 7.288978e+002
2.342181e+002, 7.334166e+002
2.347002e+002, 7.379326e+002
2.351823e+002, 7.423749e+002
2.356644e+002, 7.468493e+002
2.361466e+002, 7.513505e+002
2.366287e+002, 7.557138e+002
2.371108e+002, 7.605569e+002
2.375929e+002, 7.661219e+002
2.380750e+002, 7.719943e+002
2.385571e+002, 7.772836e+002
2.390393e+002, 7.818835e+002
2.395214e+002, 7.860771e+002
2.400035e+002, 7.899173e+002
2.404856e+002, 7.933549e+002
2.409677e+002, 7.967383e+002
2.414498e+002, 8.000927e+002
2.419320e+002, 8.033981e+002
2.424141e+002, 8.066418e+002
2.428962e+002, 8.096627e+002
2.433783e+002, 8.129274e+002
2.438604e+002, 8.166890e+002
2.443425e+002, 8.211928e+002
2.448247e+002, 8.253353e+002
2.453068e+002, 8.290442e+002
2.457889e+002, 8.324442e+002
2.462710e+002, 8.358123e+002
2.467531e+002, 8.392882e+002
2.472352e+002, 8.424583e+002
2.477174e+002, 8.448962e+002
2.481995e+002, 8.460992e+002
2.486816e+002, 8.490368e+002
2.491637e+002, 8.544769e+002
2.496458e+002, 8.610756e+002
2.501279e+002, 8.669349e+002
2.506101e+002, 8.720505e+002
2.510922e+002, 8.764905e+002
2.515743e+002, 8.800222e+002
2.520564e+002, 8.824725e+002
2.525385e+002, 8.854407e+002
2.530206e+002, 8.889471e+002
2.535028e+002, 8.929871e+002
2.539849e+002, 8.975574e+002
2.544670e+002, 9.031232e+002
2.549491e+002, 9.083461e+002
2.554312e+002, 9.127980e+002
2.559133e+002, 9.163802e+002
2.563955e+002, 9.204172e+002
2.568776e+002, 9.252941e+002
2.573597e+002, 9.302137e+002
2.578418e+002, 9.342524e+002
2.583239e+002, 9.370061e+002
2.588061e+002, 9.399018e+002
2.592882e+002, 9.432686e+002
2.597703e+002, 9.471122e+002
2.602524e+002, 9.509873e+002
2.607345e+002, 9.551837e+002
2.612166e+002, 9.590538e+002
2.616988e+002, 9.620438e+002
2.621809e+002, 9.639152e+002
2.626630e+002, 9.654541e+002
2.631451e+002, 9.667991e+002
2.636272e+002, 9.679381e+002
2.641093e+002, 9.685660e+002
2.645915e+002, 9.685250e+002
2.650736e+002, 9.682844e+002
2.655557e+002, 9.684821e+002
2.660378e+002, 9.696761e+002
2.665199e+002, 9.693084e+002
2.670020e+002, 9.667719e+002
2.674842e+002, 9.623943e+002
2.679663e+002, 9.578063e+002
2.684484e+002, 9.528417e+002
2.689305e+002, 9.480568e+002
2.694126e+002, 9.440188e+002
2.698947e+002, 9.409083e+002
2.703769e+002, 9.374308e+002
2.708590e+002, 9.332310e+002
2.713411e+002, 9.286467e+002
2.718232e+002, 9.249287e+002
2.723053e+002, 9.222123e+002
2.727874e+002, 9.199464e+002
2.732696e+002, 9.178103e+002
2.737517e+002, 9.157961e+002
2.742338e+002, 9.140180e+002
2.747159e+002, 9.125784e+002
2.751980e+002, 9.112706e+002
2.756801e+002, 9.092964e+002
2.761623e+002, 9.062792e+002
2.766444e+002, 9.043123e+002
2.771265e+002, 9.047797e+002
2.776086e+002, 9.078863e+002
2.780907e+002, 9.108790e+002
2.785728e+002, 9.136386e+002
2.790550e+002, 9.163790e+002
2.795371e+002, 9.194201e+002
2.800192e+002, 9.227540e+002
2.805013e+002, 9.264506e+002
2.809834e+002, 9.303064e+002
2.814655e+002, 9.343455e+002
2.819477e+002, 9.397841e+002
2.824298e+002, 9.467081e+002
2.829119e+002, 9.546258e+002
2.833940e+002, 9.629666e+002
2.838761e+002, 9.717239e+002
2.843582e+002, 9.806702e+002
2.848404e+002, 9.897260e+002
2.853225e+002, 9.988807e+002
2.858046e+002, 1.008222e+003
2.862867e+002, 1.017698e+003
2.867688e+002, 1.027140e+003
2.872509e+002, 1.035943e+003
2.877331e+002, 1.044213e+003
2.882152e+002, 1.053531e+003
2.886973e+002, 1.064973e+003
2.891794e+002, 1.077734e+003
2.896615e+002, 1.088731e+003
2.901436e+002, 1.097949e+003
2.906258e+002, 1.106868e+003
2.911079e+002, 1.117287e+003
2.915900e+002, 1.128877e+003
2.920721e+002, 1.139743e+003
2.925542e+002, 1.148989e+003
2.930363e+002, 1.157512e+003
2.935185e+002, 1.167371e+003
2.940006e+002, 1.178629e+003
2.944827e+002, 1.189399e+003
2.949648e+002, 1.198736e+003
2.954469e+002, 1.206691e+003
2.959290e+002, 1.213154e+003
2.964112e+002, 1.217912e+003
2.968933e+002, 1.221609e+003
2.973754e+002, 1.225380e+003
2.978575e+002, 1.229045e+003
2.983396e+002, 1.231620e+003
2.988217e+002, 1.232493e+003
2.993039e+002, 1.231777e+003
2.997860e+002, 1.229701e+003
3.002681e+002, 1.226297e+003
3.007502e+002, 1.221470e+003
3.012323e+002, 1.215171e+003
3.017144e+002, 1.207327e+003
3.021966e+002, 1.198133e+003
3.026787e+002, 1.187146e+003
3.031608e+002, 1.174950e+003
3.036429e+002, 1.161931e+003
3.041250e+002, 1.148172e+003
3.046071e+002, 1.134115e+003
3.050893e+002, 1.120401e+003
3.055714e+002, 1.106706e+003
3.060535e+002, 1.092885e+003
3.065356e+002, 1.078668e+003
3.070177e+002, 1.064224e+003
3.074998e+002, 1.049715e+003
3.079820e+002, 1.035024e+003
3.084641e+002, 1.020983e+003
3.089462e+002, 1.008201e+003
3.094283e+002, 9.963559e+002
3.099104e+002, 9.851639e+002
3.103925e+002, 9.746927e+002
3.108747e+002, 9.648262e+002
3.113568e+002, 9.556415e+002
3.118389e+002, 9.471376e+002
3.123210e+002, 9.393046e+002
3.128031e+002, 9.317372e+002
3.132852e+002, 9.249415e+002
3.137674e+002, 9.194119e+002
3.142495e+002, 9.161177e+002
3.147316e+002, 9.131193e+002
3.152137e+002, 9.092991e+002
3.156958e+002, 9.049795e+002
3.161779e+002, 9.012526e+002
3.166601e+002, 8.987048e+002
3.171422e+002, 8.967962e+002
3.176243e+002, 8.951779e+002
3.181064e+002, 8.936832e+002
3.185885e+002, 8.927033e+002
3.190706e+002, 8.921260e+002
3.195528e+002, 8.921594e+002
3.200349e+002, 8.932125e+002
3.205170e+002, 8.962444e+002
3.209991e+002, 8.996202e+002
3.214812e+002, 9.027206e+002
3.219633e+002, 9.055211e+002
3.224455e+002, 9.079268e+002
3.229276e+002, 9.092767e+002
3.234097e+002, 9.104471e+002
3.238918e+002, 9.125149e+002
3.243739e+002, 9.161315e+002
3.248560e+002, 9.201953e+002
3.253382e+002, 9.243923e+002
3.258203e+002, 9.286926e+002
3.263024e+002, 9.335663e+002
3.267845e+002, 9.400374e+002
3.272666e+002, 9.466036e+002
3.277487e+002, 9.520840e+002
3.282309e+002, 9.552250e+002
3.287130e+002, 9.586807e+002
3.291951e+002, 9.627396e+002
3.296772e+002, 9.673596e+002
3.301593e+002, 9.721635e+002
3.306414e+002, 9.774511e+002
3.311236e+002, 9.825677e+002
3.316057e+002, 9.871705e+002
3.320878e+002, 9.909769e+002
3.325699e+002, 9.947717e+002
3.330520e+002, 9.986658e+002
3.335341e+002, 1.002507e+003
3.340163e+002, 1.005850e+003
3.344984e+002, 1.008591e+003
3.349805e+002, 1.010944e+003
3.354626e+002, 1.013140e+003
3.359447e+002, 1.015474e+003
3.364268e+002, 1.016502e+003
3.369090e+002, 1.016047e+003
3.373911e+002, 1.014500e+003
3.378732e+002, 1.012548e+003
3.383553e+002, 1.010363e+003
3.388374e+002, 1.007219e+003
3.393195e+002, 1.002662e+003
3.398017e+002, 9.967873e+002
3.402838e+002, 9.911945e+002
3.407659e+002, 9.862183e+002
3.412480e+002, 9.806595e+002
3.417301e+002, 9.728135e+002
3.422122e+002, 9.625499e+002
3.426944e+002, 9.524593e+002
3.431765e+002, 9.433505e+002
3.436586e+002, 9.346871e+002
3.441407e+002, 9.249799e+002
3.446228e+002, 9.142350e+002
3.451049e+002, 9.028103e+002
3.455871e+002, 8.907137e+002
3.460692e+002, 8.779807e+002
3.465513e+002, 8.660732e+002
3.470334e+002, 8.552029e+002
3.475155e+002, 8.450236e+002
3.479977e+002, 8.354833e+002
3.484798e+002, 8.264189e+002
3.489619e+002, 8.171918e+002
3.494440e+002, 8.072029e+002
3.499261e+002, 7.967925e+002
3.504082e+002, 7.866672e+002
3.508904e+002, 7.768536e+002
3.513725e+002, 7.674850e+002
3.518546e+002, 7.584520e+002
3.523367e+002, 7.498905e+002
3.528188e+002, 7.420468e+002
3.533009e+002, 7.355099e+002
3.537831e+002, 7.294925e+002
3.542652e+002, 7.228527e+002
3.547473e+002, 7.156381e+002
3.552294e+002, 7.089262e+002
3.557115e+002, 7.040421e+002
3.561936e+002, 6.999674e+002
3.566758e+002, 6.953314e+002
3.571579e+002, 6.890885e+002
3.576400e+002, 6.829187e+002
3.581221e+002, 6.780828e+002
3.586042e+002, 6.743694e+002
3.590863e+002, 6.708395e+002
3.595685e+002, 6.669111e+002
3.600506e+002, 6.630730e+002
3.605327e+002, 6.597982e+002
3.610148e+002, 6.574670e+002
3.614969e+002, 6.548933e+002
3.619790e+002, 6.510628e+002
3.624612e+002, 6.467531e+002
3.629433e+002, 6.432063e+002
3.634254e+002, 6.412547e+002
3.639075e+002, 6.397341e+002
3.643896e+002, 6.382182e+002
3.648717e+002, 6.366604e+002
3.653539e+002, 6.351799e+002
3.658360e+002, 6.336308e+002
3.663181e+002, 6.322480e+002
3.668002e+002, 6.312068e+002
3.672823e+002, 6.308416e+002
3.677644e+002, 6.304630e+002
3.682466e+002, 6.298420e+002
3.687287e+002, 6.290264e+002
3.692108e+002, 6.285947e+002
3.696929e+002, 6.284499e+002
3.701750e+002, 6.287727e+002
3.706571e+002, 6.297042e+002
3.711393e+002, 6.318740e+002
3.716214e+002, 6.335216e+002
3.721035e+002, 6.341009e+002
3.725856e+002, 6.343475e+002
3.730677e+002, 6.360336e+002
3.735498e+002, 6.399420e+002
3.740320e+002, 6.438262e+002
3.745141e+002, 6.467105e+002
3.749962e+002, 6.483896e+002
3.754783e+002, 6.507989e+002
3.759604e+002, 6.539560e+002
3.764425e+002, 6.577663e+002
3.769247e+002, 6.623456e+002
3.774068e+002, 6.678336e+002
3.778889e+002, 6.729474e+002
3.783710e+002, 6.771705e+002
3.788531e+002, 6.807585e+002
3.793352e+002, 6.849949e+002
3.798174e+002, 6.899295e+002
3.802995e+002, 6.949235e+002
3.807816e+002, 6.990973e+002
3.812637e+002, 7.026693e+002
3.817458e+002, 7.073284e+002
3.822279e+002, 7.137335e+002
3.827101e+002, 7.205621e+002
3.831922e+002, 7.253351e+002
3.836743e+002, 7.284323e+002
3.841564e+002, 7.321560e+002
3.846385e+002, 7.386755e+002
3.851206e+002, 7.465515e+002
3.856028e+002, 7.529747e+002
3.860849e+002, 7.577892e+002
3.865670e+002, 7.615636e+002
3.870491e+002, 7.644072e+002
3.875312e+002, 7.666512e+002
3.880133e+002, 7.689979e+002
3.884955e+002, 7.721290e+002
3.889776e+002, 7.751125e+002
3.894597e+002, 7.772648e+002
3.899418e+002, 7.785539e+002
3.904239e+002, 7.787987e+002
3.909060e+002, 7.766100e+002
3.913882e+002, 7.739860e+002
3.918703e+002, 7.729453e+002
3.923524e+002, 7.747411e+002
3.928345e+002, 7.763479e+002
3.933166e+002, 7.761238e+002
3.937987e+002, 7.746843e+002
3.942809e+002, 7.732748e+002
3.947630e+002, 7.718983e+002
3.952451e+002, 7.709786e+002
3.957272e+002, 7.709553e+002
3.962093e+002, 7.720864e+002
3.966914e+002, 7.726091e+002
3.971736e+002, 7.715074e+002
3.976557e+002, 7.699525e+002
3.981378e+002, 7.690165e+002
3.986199e+002, 7.688420e+002
3.991020e+002, 7.692643e+002
3.995841e+002, 7.705877e+002
4.000663e+002, 7.726309e+002
4.005484e+002, 7.741855e+002
4.010305e+002, 7.748139e+002
4.015126e+002, 7.754290e+002
4.019947e+002, 7.765191e+002
