##NAMES=Veszelyite
##RRUFFID=R150144
##IDEAL CHEMISTRY=Cu^2+^_3_PO_4_(OH)_3_&#183;2H_2_O
##LOCALITY=Hisaichi Mine, Nakagawa, Akita Prefecture, Japan
##OWNER=RRUFF
##SOURCE=Leor Goldberg
##DESCRIPTION=A fragment of dark blue crystal
##STATUS=The identification of this mineral has been confirmed by single-crystal X-ray diffraction.
##URL=rruff.info/R150144
8.813672e+001, 3.382439e+002
8.861884e+001, 3.419523e+002
8.910095e+001, 3.459864e+002
8.958307e+001, 3.520399e+002
9.006519e+001, 3.593983e+002
9.054730e+001, 3.664035e+002
9.102942e+001, 3.736673e+002
9.151154e+001, 3.796468e+002
9.199365e+001, 3.821780e+002
9.247577e+001, 3.817988e+002
9.295789e+001, 3.807348e+002
9.344000e+001, 3.804137e+002
9.392212e+001, 3.803120e+002
9.440424e+001, 3.796987e+002
9.488635e+001, 3.786883e+002
9.536847e+001, 3.778985e+002
9.585059e+001, 3.785604e+002
9.633270e+001, 3.806547e+002
9.681482e+001, 3.835968e+002
9.729694e+001, 3.873763e+002
9.777905e+001, 3.919693e+002
9.826117e+001, 3.954974e+002
9.874329e+001, 3.972704e+002
9.922540e+001, 3.974717e+002
9.970752e+001, 3.972356e+002
1.001896e+002, 3.962682e+002
1.006718e+002, 3.954046e+002
1.011539e+002, 3.955879e+002
1.016360e+002, 3.967132e+002
1.021181e+002, 3.991870e+002
1.026002e+002, 4.032235e+002
1.030823e+002, 4.089464e+002
1.035645e+002, 4.153166e+002
1.040466e+002, 4.224182e+002
1.045287e+002, 4.301450e+002
1.050108e+002, 4.384571e+002
1.054929e+002, 4.470978e+002
1.059750e+002, 4.566305e+002
1.064572e+002, 4.673558e+002
1.069393e+002, 4.804885e+002
1.074214e+002, 4.926565e+002
1.079035e+002, 5.034477e+002
1.083856e+002, 5.133444e+002
1.088677e+002, 5.235397e+002
1.093499e+002, 5.355192e+002
1.098320e+002, 5.468836e+002
1.103141e+002, 5.566034e+002
1.107962e+002, 5.645964e+002
1.112783e+002, 5.712713e+002
1.117604e+002, 5.763209e+002
1.122426e+002, 5.799837e+002
1.127247e+002, 5.834583e+002
1.132068e+002, 5.862692e+002
1.136889e+002, 5.893215e+002
1.141710e+002, 5.932109e+002
1.146531e+002, 5.984933e+002
1.151353e+002, 6.041935e+002
1.156174e+002, 6.099927e+002
1.160995e+002, 6.158638e+002
1.165816e+002, 6.224357e+002
1.170637e+002, 6.306101e+002
1.175458e+002, 6.393534e+002
1.180280e+002, 6.476519e+002
1.185101e+002, 6.533297e+002
1.189922e+002, 6.596577e+002
1.194743e+002, 6.685247e+002
1.199564e+002, 6.801976e+002
1.204385e+002, 6.934615e+002
1.209207e+002, 7.079792e+002
1.214028e+002, 7.235702e+002
1.218849e+002, 7.398416e+002
1.223670e+002, 7.580152e+002
1.228491e+002, 7.763820e+002
1.233312e+002, 7.931672e+002
1.238134e+002, 8.082907e+002
1.242955e+002, 8.217133e+002
1.247776e+002, 8.323857e+002
1.252597e+002, 8.409982e+002
1.257418e+002, 8.498782e+002
1.262239e+002, 8.612639e+002
1.267061e+002, 8.738876e+002
1.271882e+002, 8.853295e+002
1.276703e+002, 8.958397e+002
1.281524e+002, 9.041321e+002
1.286345e+002, 9.090174e+002
1.291166e+002, 9.103298e+002
1.295988e+002, 9.070627e+002
1.300809e+002, 8.976921e+002
1.305630e+002, 8.827538e+002
1.310451e+002, 8.642092e+002
1.315272e+002, 8.412014e+002
1.320093e+002, 8.159767e+002
1.324915e+002, 7.929392e+002
1.329736e+002, 7.721024e+002
1.334557e+002, 7.535795e+002
1.339378e+002, 7.379231e+002
1.344199e+002, 7.250607e+002
1.349020e+002, 7.140322e+002
1.353842e+002, 7.045745e+002
1.358663e+002, 6.968848e+002
1.363484e+002, 6.911375e+002
1.368305e+002, 6.874805e+002
1.373126e+002, 6.853954e+002
1.377947e+002, 6.846727e+002
1.382769e+002, 6.855536e+002
1.387590e+002, 6.865062e+002
1.392411e+002, 6.870722e+002
1.397232e+002, 6.872504e+002
1.402053e+002, 6.877211e+002
1.406874e+002, 6.885032e+002
1.411696e+002, 6.896000e+002
1.416517e+002, 6.910978e+002
1.421338e+002, 6.933146e+002
1.426159e+002, 6.953234e+002
1.430980e+002, 6.968879e+002
1.435801e+002, 6.979706e+002
1.440623e+002, 6.988632e+002
1.445444e+002, 6.994196e+002
1.450265e+002, 6.999227e+002
1.455086e+002, 7.007916e+002
1.459907e+002, 7.019258e+002
1.464728e+002, 7.036172e+002
1.469550e+002, 7.059850e+002
1.474371e+002, 7.090543e+002
1.479192e+002, 7.127476e+002
1.484013e+002, 7.171397e+002
1.488834e+002, 7.221250e+002
1.493655e+002, 7.275810e+002
1.498477e+002, 7.342420e+002
1.503298e+002, 7.406992e+002
1.508119e+002, 7.464844e+002
1.512940e+002, 7.526472e+002
1.517761e+002, 7.566145e+002
1.522583e+002, 7.575092e+002
1.527404e+002, 7.560092e+002
1.532225e+002, 7.539922e+002
1.537046e+002, 7.525986e+002
1.541867e+002, 7.500061e+002
1.546688e+002, 7.453348e+002
1.551510e+002, 7.360361e+002
1.556331e+002, 7.275779e+002
1.561152e+002, 7.212165e+002
1.565973e+002, 7.165013e+002
1.570794e+002, 7.117998e+002
1.575615e+002, 7.062894e+002
1.580437e+002, 7.009276e+002
1.585258e+002, 6.962907e+002
1.590079e+002, 6.927639e+002
1.594900e+002, 6.897051e+002
1.599721e+002, 6.869529e+002
1.604542e+002, 6.845218e+002
1.609364e+002, 6.824947e+002
1.614185e+002, 6.810770e+002
1.619006e+002, 6.799906e+002
1.623827e+002, 6.790110e+002
1.628648e+002, 6.780562e+002
1.633469e+002, 6.772048e+002
1.638291e+002, 6.767288e+002
1.643112e+002, 6.765538e+002
1.647933e+002, 6.758937e+002
1.652754e+002, 6.735676e+002
1.657575e+002, 6.708312e+002
1.662396e+002, 6.690046e+002
1.667218e+002, 6.691785e+002
1.672039e+002, 6.699384e+002
1.676860e+002, 6.703643e+002
1.681681e+002, 6.704586e+002
1.686502e+002, 6.707844e+002
1.691323e+002, 6.718819e+002
1.696145e+002, 6.733906e+002
1.700966e+002, 6.748130e+002
1.705787e+002, 6.757704e+002
1.710608e+002, 6.766689e+002
1.715429e+002, 6.779688e+002
1.720250e+002, 6.797134e+002
1.725072e+002, 6.813393e+002
1.729893e+002, 6.827981e+002
1.734714e+002, 6.838524e+002
1.739535e+002, 6.840600e+002
1.744356e+002, 6.827283e+002
1.749177e+002, 6.806672e+002
1.753999e+002, 6.787756e+002
1.758820e+002, 6.770773e+002
1.763641e+002, 6.754547e+002
1.768462e+002, 6.733594e+002
1.773283e+002, 6.711522e+002
1.778104e+002, 6.697683e+002
1.782926e+002, 6.699667e+002
1.787747e+002, 6.711829e+002
1.792568e+002, 6.723325e+002
1.797389e+002, 6.732335e+002
1.802210e+002, 6.748293e+002
1.807031e+002, 6.785016e+002
1.811853e+002, 6.838519e+002
1.816674e+002, 6.893828e+002
1.821495e+002, 6.941757e+002
1.826316e+002, 6.986011e+002
1.831137e+002, 7.034714e+002
1.835958e+002, 7.089621e+002
1.840780e+002, 7.145729e+002
1.845601e+002, 7.199693e+002
1.850422e+002, 7.250368e+002
1.855243e+002, 7.296194e+002
1.860064e+002, 7.336628e+002
1.864885e+002, 7.371590e+002
1.869707e+002, 7.398995e+002
1.874528e+002, 7.419030e+002
1.879349e+002, 7.431788e+002
1.884170e+002, 7.440095e+002
1.888991e+002, 7.443478e+002
1.893812e+002, 7.433499e+002
1.898634e+002, 7.401853e+002
1.903455e+002, 7.351096e+002
1.908276e+002, 7.296066e+002
1.913097e+002, 7.235912e+002
1.917918e+002, 7.173978e+002
1.922739e+002, 7.115394e+002
1.927561e+002, 7.059362e+002
1.932382e+002, 7.006097e+002
1.937203e+002, 6.956552e+002
1.942024e+002, 6.910465e+002
1.946845e+002, 6.861020e+002
1.951666e+002, 6.807135e+002
1.956488e+002, 6.751240e+002
1.961309e+002, 6.698116e+002
1.966130e+002, 6.647239e+002
1.970951e+002, 6.598201e+002
1.975772e+002, 6.551682e+002
1.980593e+002, 6.507791e+002
1.985415e+002, 6.458280e+002
1.990236e+002, 6.399650e+002
1.995057e+002, 6.338772e+002
1.999878e+002, 6.295450e+002
2.004699e+002, 6.273259e+002
2.009520e+002, 6.250750e+002
2.014342e+002, 6.213464e+002
2.019163e+002, 6.159474e+002
2.023984e+002, 6.112589e+002
2.028805e+002, 6.075399e+002
2.033626e+002, 6.045208e+002
2.038447e+002, 6.014601e+002
2.043269e+002, 5.982214e+002
2.048090e+002, 5.954161e+002
2.052911e+002, 5.937001e+002
2.057732e+002, 5.933396e+002
2.062553e+002, 5.921182e+002
2.067374e+002, 5.895977e+002
2.072196e+002, 5.863356e+002
2.077017e+002, 5.838897e+002
2.081838e+002, 5.824521e+002
2.086659e+002, 5.813012e+002
2.091480e+002, 5.800994e+002
2.096301e+002, 5.788497e+002
2.101123e+002, 5.774540e+002
2.105944e+002, 5.757628e+002
2.110765e+002, 5.739884e+002
2.115586e+002, 5.727443e+002
2.120407e+002, 5.721068e+002
2.125228e+002, 5.718279e+002
2.130050e+002, 5.718717e+002
2.134871e+002, 5.723966e+002
2.139692e+002, 5.726358e+002
2.144513e+002, 5.724686e+002
2.149334e+002, 5.720126e+002
2.154155e+002, 5.715947e+002
2.158977e+002, 5.711775e+002
2.163798e+002, 5.708532e+002
2.168619e+002, 5.706247e+002
2.173440e+002, 5.703844e+002
2.178261e+002, 5.705934e+002
2.183082e+002, 5.714666e+002
2.187904e+002, 5.727335e+002
2.192725e+002, 5.735565e+002
2.197546e+002, 5.737768e+002
2.202367e+002, 5.738207e+002
2.207188e+002, 5.738516e+002
2.212009e+002, 5.737571e+002
2.216831e+002, 5.739833e+002
2.221652e+002, 5.746121e+002
2.226473e+002, 5.755645e+002
2.231294e+002, 5.765735e+002
2.236115e+002, 5.776174e+002
2.240936e+002, 5.787951e+002
2.245758e+002, 5.801957e+002
2.250579e+002, 5.819199e+002
2.255400e+002, 5.836195e+002
2.260221e+002, 5.852405e+002
2.265042e+002, 5.868605e+002
2.269863e+002, 5.886652e+002
2.274685e+002, 5.908524e+002
2.279506e+002, 5.929506e+002
2.284327e+002, 5.946533e+002
2.289148e+002, 5.955164e+002
2.293969e+002, 5.970467e+002
2.298790e+002, 5.993387e+002
2.303612e+002, 6.022682e+002
2.308433e+002, 6.055179e+002
2.313254e+002, 6.090932e+002
2.318075e+002, 6.130206e+002
2.322896e+002, 6.173358e+002
2.327717e+002, 6.221059e+002
2.332539e+002, 6.270932e+002
2.337360e+002, 6.323868e+002
2.342181e+002, 6.377680e+002
2.347002e+002, 6.428547e+002
2.351823e+002, 6.479247e+002
2.356644e+002, 6.521930e+002
2.361466e+002, 6.552228e+002
2.366287e+002, 6.564830e+002
2.371108e+002, 6.579893e+002
2.375929e+002, 6.602203e+002
2.380750e+002, 6.624752e+002
2.385571e+002, 6.631985e+002
2.390393e+002, 6.616625e+002
2.395214e+002, 6.597540e+002
2.400035e+002, 6.581282e+002
2.404856e+002, 6.568449e+002
2.409677e+002, 6.556829e+002
2.414498e+002, 6.548647e+002
2.419320e+002, 6.540766e+002
2.424141e+002, 6.527423e+002
2.428962e+002, 6.508062e+002
2.433783e+002, 6.484496e+002
2.438604e+002, 6.457438e+002
2.443425e+002, 6.427200e+002
2.448247e+002, 6.392076e+002
2.453068e+002, 6.347889e+002
2.457889e+002, 6.301545e+002
2.462710e+002, 6.263815e+002
2.467531e+002, 6.239565e+002
2.472352e+002, 6.215408e+002
2.477174e+002, 6.186505e+002
2.481995e+002, 6.151423e+002
2.486816e+002, 6.119603e+002
2.491637e+002, 6.090494e+002
2.496458e+002, 6.064821e+002
2.501279e+002, 6.044391e+002
2.506101e+002, 6.031188e+002
2.510922e+002, 6.018942e+002
2.515743e+002, 6.005340e+002
2.520564e+002, 5.989434e+002
2.525385e+002, 5.979006e+002
2.530206e+002, 5.976288e+002
2.535028e+002, 5.976967e+002
2.539849e+002, 5.975184e+002
2.544670e+002, 5.967427e+002
2.549491e+002, 5.964653e+002
2.554312e+002, 5.969979e+002
2.559133e+002, 5.983672e+002
2.563955e+002, 6.000540e+002
2.568776e+002, 6.023634e+002
2.573597e+002, 6.046564e+002
2.578418e+002, 6.061940e+002
2.583239e+002, 6.066398e+002
2.588061e+002, 6.071594e+002
2.592882e+002, 6.080807e+002
2.597703e+002, 6.093934e+002
2.602524e+002, 6.103244e+002
2.607345e+002, 6.110339e+002
2.612166e+002, 6.111526e+002
2.616988e+002, 6.101758e+002
2.621809e+002, 6.076558e+002
2.626630e+002, 6.054024e+002
2.631451e+002, 6.038672e+002
2.636272e+002, 6.029299e+002
2.641093e+002, 6.015632e+002
2.645915e+002, 5.995695e+002
2.650736e+002, 5.974879e+002
2.655557e+002, 5.957108e+002
2.660378e+002, 5.943405e+002
2.665199e+002, 5.930151e+002
2.670020e+002, 5.915842e+002
2.674842e+002, 5.901635e+002
2.679663e+002, 5.894705e+002
2.684484e+002, 5.896920e+002
2.689305e+002, 5.902015e+002
2.694126e+002, 5.906393e+002
2.698947e+002, 5.910508e+002
2.703769e+002, 5.911557e+002
2.708590e+002, 5.908240e+002
2.713411e+002, 5.902134e+002
2.718232e+002, 5.898337e+002
2.723053e+002, 5.897081e+002
2.727874e+002, 5.897335e+002
2.732696e+002, 5.898861e+002
2.737517e+002, 5.901921e+002
2.742338e+002, 5.904221e+002
2.747159e+002, 5.905067e+002
2.751980e+002, 5.905667e+002
2.756801e+002, 5.910502e+002
2.761623e+002, 5.921500e+002
2.766444e+002, 5.928339e+002
2.771265e+002, 5.922557e+002
2.776086e+002, 5.902551e+002
2.780907e+002, 5.893574e+002
2.785728e+002, 5.900105e+002
2.790550e+002, 5.911605e+002
2.795371e+002, 5.907443e+002
2.800192e+002, 5.885574e+002
2.805013e+002, 5.864675e+002
2.809834e+002, 5.853920e+002
2.814655e+002, 5.852996e+002
2.819477e+002, 5.850584e+002
2.824298e+002, 5.846816e+002
2.829119e+002, 5.841085e+002
2.833940e+002, 5.832040e+002
2.838761e+002, 5.819548e+002
2.843582e+002, 5.806201e+002
2.848404e+002, 5.793027e+002
2.853225e+002, 5.779757e+002
2.858046e+002, 5.764024e+002
2.862867e+002, 5.745189e+002
2.867688e+002, 5.727416e+002
2.872509e+002, 5.717176e+002
2.877331e+002, 5.713844e+002
2.882152e+002, 5.708293e+002
2.886973e+002, 5.696456e+002
2.891794e+002, 5.680704e+002
2.896615e+002, 5.669796e+002
2.901436e+002, 5.664128e+002
2.906258e+002, 5.658390e+002
2.911079e+002, 5.646005e+002
2.915900e+002, 5.628538e+002
2.920721e+002, 5.614236e+002
2.925542e+002, 5.606080e+002
2.930363e+002, 5.601762e+002
2.935185e+002, 5.596437e+002
2.940006e+002, 5.590135e+002
2.944827e+002, 5.585204e+002
2.949648e+002, 5.585692e+002
2.954469e+002, 5.589170e+002
2.959290e+002, 5.587276e+002
2.964112e+002, 5.576370e+002
2.968933e+002, 5.562899e+002
2.973754e+002, 5.556210e+002
2.978575e+002, 5.555824e+002
2.983396e+002, 5.558992e+002
2.988217e+002, 5.565739e+002
2.993039e+002, 5.574495e+002
2.997860e+002, 5.582623e+002
3.002681e+002, 5.590391e+002
3.007502e+002, 5.595565e+002
3.012323e+002, 5.592643e+002
3.017144e+002, 5.584031e+002
3.021966e+002, 5.578259e+002
3.026787e+002, 5.583271e+002
3.031608e+002, 5.592405e+002
3.036429e+002, 5.596041e+002
3.041250e+002, 5.592813e+002
3.046071e+002, 5.588411e+002
3.050893e+002, 5.586564e+002
3.055714e+002, 5.587355e+002
3.060535e+002, 5.590981e+002
3.065356e+002, 5.602978e+002
3.070177e+002, 5.614657e+002
3.074998e+002, 5.616832e+002
3.079820e+002, 5.609276e+002
3.084641e+002, 5.598196e+002
3.089462e+002, 5.581746e+002
3.094283e+002, 5.566006e+002
3.099104e+002, 5.559550e+002
3.103925e+002, 5.574941e+002
3.108747e+002, 5.593379e+002
3.113568e+002, 5.603214e+002
3.118389e+002, 5.604937e+002
3.123210e+002, 5.601879e+002
3.128031e+002, 5.589927e+002
3.132852e+002, 5.576758e+002
3.137674e+002, 5.570087e+002
3.142495e+002, 5.577538e+002
3.147316e+002, 5.584764e+002
3.152137e+002, 5.581456e+002
3.156958e+002, 5.571326e+002
3.161779e+002, 5.566907e+002
3.166601e+002, 5.579825e+002
3.171422e+002, 5.595995e+002
3.176243e+002, 5.605827e+002
3.181064e+002, 5.604784e+002
3.185885e+002, 5.602877e+002
3.190706e+002, 5.601536e+002
3.195528e+002, 5.601660e+002
3.200349e+002, 5.605026e+002
3.205170e+002, 5.616246e+002
3.209991e+002, 5.627390e+002
3.214812e+002, 5.634637e+002
3.219633e+002, 5.636484e+002
3.224455e+002, 5.638798e+002
3.229276e+002, 5.645258e+002
3.234097e+002, 5.652060e+002
3.238918e+002, 5.654540e+002
3.243739e+002, 5.647851e+002
3.248560e+002, 5.640925e+002
3.253382e+002, 5.634509e+002
3.258203e+002, 5.628123e+002
3.263024e+002, 5.628079e+002
3.267845e+002, 5.644403e+002
3.272666e+002, 5.662099e+002
3.277487e+002, 5.669179e+002
3.282309e+002, 5.650681e+002
3.287130e+002, 5.639041e+002
3.291951e+002, 5.640426e+002
3.296772e+002, 5.653281e+002
3.301593e+002, 5.661951e+002
3.306414e+002, 5.663623e+002
3.311236e+002, 5.663631e+002
3.316057e+002, 5.665064e+002
3.320878e+002, 5.670849e+002
3.325699e+002, 5.672369e+002
3.330520e+002, 5.666921e+002
3.335341e+002, 5.657368e+002
3.340163e+002, 5.652054e+002
3.344984e+002, 5.653383e+002
3.349805e+002, 5.654907e+002
3.354626e+002, 5.653564e+002
3.359447e+002, 5.647986e+002
3.364268e+002, 5.645214e+002
3.369090e+002, 5.646635e+002
3.373911e+002, 5.649499e+002
3.378732e+002, 5.648738e+002
3.383553e+002, 5.642819e+002
3.388374e+002, 5.638857e+002
3.393195e+002, 5.639327e+002
3.398017e+002, 5.644135e+002
3.402838e+002, 5.650804e+002
3.407659e+002, 5.660831e+002
3.412480e+002, 5.669108e+002
3.417301e+002, 5.669249e+002
3.422122e+002, 5.660684e+002
3.426944e+002, 5.652108e+002
3.431765e+002, 5.644534e+002
3.436586e+002, 5.638690e+002
3.441407e+002, 5.637889e+002
3.446228e+002, 5.642335e+002
3.451049e+002, 5.648907e+002
3.455871e+002, 5.654636e+002
3.460692e+002, 5.660094e+002
3.465513e+002, 5.669741e+002
3.470334e+002, 5.685947e+002
3.475155e+002, 5.702875e+002
3.479977e+002, 5.708733e+002
3.484798e+002, 5.704795e+002
3.489619e+002, 5.701267e+002
3.494440e+002, 5.703569e+002
3.499261e+002, 5.710589e+002
3.504082e+002, 5.719423e+002
3.508904e+002, 5.729629e+002
3.513725e+002, 5.743384e+002
3.518546e+002, 5.765389e+002
3.523367e+002, 5.793120e+002
3.528188e+002, 5.820129e+002
3.533009e+002, 5.848712e+002
3.537831e+002, 5.872426e+002
3.542652e+002, 5.878907e+002
3.547473e+002, 5.869049e+002
3.552294e+002, 5.861744e+002
3.557115e+002, 5.873221e+002
3.561936e+002, 5.894736e+002
3.566758e+002, 5.914982e+002
3.571579e+002, 5.931238e+002
3.576400e+002, 5.944891e+002
3.581221e+002, 5.954412e+002
3.586042e+002, 5.961456e+002
3.590863e+002, 5.972271e+002
3.595685e+002, 5.992679e+002
3.600506e+002, 6.016422e+002
3.605327e+002, 6.039730e+002
3.610148e+002, 6.063436e+002
3.614969e+002, 6.082760e+002
3.619790e+002, 6.092106e+002
3.624612e+002, 6.096238e+002
3.629433e+002, 6.103383e+002
3.634254e+002, 6.115794e+002
3.639075e+002, 6.131799e+002
3.643896e+002, 6.152777e+002
3.648717e+002, 6.179971e+002
3.653539e+002, 6.202142e+002
3.658360e+002, 6.217999e+002
3.663181e+002, 6.227207e+002
3.668002e+002, 6.229920e+002
3.672823e+002, 6.212873e+002
3.677644e+002, 6.203798e+002
3.682466e+002, 6.209326e+002
3.687287e+002, 6.228394e+002
3.692108e+002, 6.246834e+002
3.696929e+002, 6.262689e+002
3.701750e+002, 6.279856e+002
3.706571e+002, 6.300603e+002
3.711393e+002, 6.331041e+002
3.716214e+002, 6.354570e+002
3.721035e+002, 6.368422e+002
3.725856e+002, 6.376446e+002
3.730677e+002, 6.386877e+002
3.735498e+002, 6.400008e+002
3.740320e+002, 6.415422e+002
3.745141e+002, 6.434881e+002
3.749962e+002, 6.459879e+002
3.754783e+002, 6.474332e+002
3.759604e+002, 6.474863e+002
3.764425e+002, 6.470178e+002
3.769247e+002, 6.472007e+002
3.774068e+002, 6.482288e+002
3.778889e+002, 6.486588e+002
3.783710e+002, 6.479729e+002
3.788531e+002, 6.464429e+002
3.793352e+002, 6.452442e+002
3.798174e+002, 6.444523e+002
3.802995e+002, 6.435380e+002
3.807816e+002, 6.419830e+002
3.812637e+002, 6.398617e+002
3.817458e+002, 6.378887e+002
3.822279e+002, 6.361096e+002
3.827101e+002, 6.345769e+002
3.831922e+002, 6.334591e+002
3.836743e+002, 6.326897e+002
3.841564e+002, 6.318752e+002
3.846385e+002, 6.306732e+002
3.851206e+002, 6.292958e+002
3.856028e+002, 6.282451e+002
3.860849e+002, 6.275764e+002
3.865670e+002, 6.268436e+002
3.870491e+002, 6.254183e+002
3.875312e+002, 6.236313e+002
3.880133e+002, 6.221438e+002
3.884955e+002, 6.215774e+002
3.889776e+002, 6.210884e+002
3.894597e+002, 6.198591e+002
3.899418e+002, 6.179752e+002
3.904239e+002, 6.159656e+002
3.909060e+002, 6.139420e+002
3.913882e+002, 6.120413e+002
3.918703e+002, 6.104442e+002
3.923524e+002, 6.093505e+002
3.928345e+002, 6.081758e+002
3.933166e+002, 6.064128e+002
3.937987e+002, 6.043702e+002
3.942809e+002, 6.026949e+002
3.947630e+002, 6.019993e+002
3.952451e+002, 6.013554e+002
3.957272e+002, 6.003361e+002
3.962093e+002, 5.988566e+002
3.966914e+002, 5.973386e+002
3.971736e+002, 5.957058e+002
3.976557e+002, 5.941393e+002
3.981378e+002, 5.927991e+002
3.986199e+002, 5.917201e+002
3.991020e+002, 5.908604e+002
3.995841e+002, 5.902972e+002
4.000663e+002, 5.899818e+002
4.005484e+002, 5.896107e+002
4.010305e+002, 5.892835e+002
4.015126e+002, 5.887968e+002
4.019947e+002, 5.880623e+002
4.024768e+002, 5.871166e+002
4.029590e+002, 5.858601e+002
