##NAMES=Vuonnemite
##RRUFFID=R080015
##IDEAL CHEMISTRY=Na_6_Na_2_Nb^5+^_2_Na_3_Ti^4+^(Si_2_O_7_)_2_(PO_4_)_2_O_2_(OF)
##LOCALITY=Kedykevrpahkh Mt., Lovozero Massif, Kola Peninsula, Russia
##OWNER=RRUFF
##SOURCE=Michael Scott
##DESCRIPTION=Yellow scale of platy crystals associated with microcline, pale pink elogated serandite, natrolite, and light brown platy manaksite.
##STATUS=The identification of this mineral has been confirmed only by single crystal X-ray diffraction.
##URL=rruff.info/R080015
9.059570e+001, 2.118935e+002
9.107782e+001, 2.057255e+002
9.155994e+001, 2.035426e+002
9.204205e+001, 2.070805e+002
9.252417e+001, 2.134879e+002
9.300629e+001, 2.224488e+002
9.348840e+001, 2.322928e+002
9.397052e+001, 2.404213e+002
9.445264e+001, 2.445134e+002
9.493475e+001, 2.476355e+002
9.541687e+001, 2.498406e+002
9.589898e+001, 2.510624e+002
9.638110e+001, 2.519020e+002
9.686321e+001, 2.527250e+002
9.734533e+001, 2.534915e+002
9.782745e+001, 2.538996e+002
9.830956e+001, 2.554627e+002
9.879168e+001, 2.593743e+002
9.927380e+001, 2.628791e+002
9.975591e+001, 2.653280e+002
1.002380e+002, 2.668369e+002
1.007201e+002, 2.676949e+002
1.012023e+002, 2.680415e+002
1.016844e+002, 2.677866e+002
1.021665e+002, 2.670198e+002
1.026486e+002, 2.647596e+002
1.031307e+002, 2.625812e+002
1.036128e+002, 2.620303e+002
1.040950e+002, 2.632550e+002
1.045771e+002, 2.651364e+002
1.050592e+002, 2.670383e+002
1.055413e+002, 2.689829e+002
1.060234e+002, 2.710490e+002
1.065055e+002, 2.733423e+002
1.069877e+002, 2.757886e+002
1.074698e+002, 2.780960e+002
1.079519e+002, 2.800278e+002
1.084340e+002, 2.820921e+002
1.089161e+002, 2.844780e+002
1.093982e+002, 2.871481e+002
1.098804e+002, 2.899728e+002
1.103625e+002, 2.928537e+002
1.108446e+002, 2.957689e+002
1.113267e+002, 2.987756e+002
1.118088e+002, 3.021044e+002
1.122909e+002, 3.053373e+002
1.127731e+002, 3.084739e+002
1.132552e+002, 3.114017e+002
1.137373e+002, 3.138396e+002
1.142194e+002, 3.153191e+002
1.147015e+002, 3.151237e+002
1.151836e+002, 3.151747e+002
1.156658e+002, 3.157839e+002
1.161479e+002, 3.164872e+002
1.166300e+002, 3.169761e+002
1.171121e+002, 3.171686e+002
1.175942e+002, 3.168583e+002
1.180763e+002, 3.152960e+002
1.185584e+002, 3.117939e+002
1.190406e+002, 3.087464e+002
1.195227e+002, 3.071245e+002
1.200048e+002, 3.065345e+002
1.204869e+002, 3.058773e+002
1.209690e+002, 3.046275e+002
1.214511e+002, 3.030538e+002
1.219333e+002, 3.017088e+002
1.224154e+002, 3.005685e+002
1.228975e+002, 2.996870e+002
1.233796e+002, 2.990598e+002
1.238617e+002, 2.986577e+002
1.243438e+002, 2.987233e+002
1.248260e+002, 2.999037e+002
1.253081e+002, 3.014348e+002
1.257902e+002, 3.026114e+002
1.262723e+002, 3.030736e+002
1.267544e+002, 3.031784e+002
1.272365e+002, 3.038499e+002
1.277187e+002, 3.058757e+002
1.282008e+002, 3.070859e+002
1.286829e+002, 3.067863e+002
1.291650e+002, 3.054489e+002
1.296471e+002, 3.036589e+002
1.301292e+002, 3.017407e+002
1.306114e+002, 2.997016e+002
1.310935e+002, 2.976357e+002
1.315756e+002, 2.961997e+002
1.320577e+002, 2.940762e+002
1.325398e+002, 2.904257e+002
1.330219e+002, 2.857168e+002
1.335041e+002, 2.811000e+002
1.339862e+002, 2.775939e+002
1.344683e+002, 2.754053e+002
1.349504e+002, 2.729752e+002
1.354325e+002, 2.694386e+002
1.359146e+002, 2.663654e+002
1.363968e+002, 2.647358e+002
1.368789e+002, 2.646048e+002
1.373610e+002, 2.653659e+002
1.378431e+002, 2.665466e+002
1.383252e+002, 2.683418e+002
1.388073e+002, 2.693753e+002
1.392895e+002, 2.692300e+002
1.397716e+002, 2.684206e+002
1.402537e+002, 2.672560e+002
1.407358e+002, 2.656100e+002
1.412179e+002, 2.643887e+002
1.417000e+002, 2.651644e+002
1.421821e+002, 2.677333e+002
1.426643e+002, 2.702605e+002
1.431464e+002, 2.721642e+002
1.436285e+002, 2.734639e+002
1.441106e+002, 2.741694e+002
1.445927e+002, 2.739032e+002
1.450748e+002, 2.734449e+002
1.455570e+002, 2.737654e+002
1.460391e+002, 2.748557e+002
1.465212e+002, 2.755315e+002
1.470033e+002, 2.742574e+002
1.474854e+002, 2.707109e+002
1.479675e+002, 2.683663e+002
1.484497e+002, 2.691977e+002
1.489318e+002, 2.706288e+002
1.494139e+002, 2.711292e+002
1.498960e+002, 2.704189e+002
1.503781e+002, 2.695499e+002
1.508602e+002, 2.702064e+002
1.513424e+002, 2.732906e+002
1.518245e+002, 2.760019e+002
1.523066e+002, 2.783696e+002
1.527887e+002, 2.801944e+002
1.532708e+002, 2.811707e+002
1.537529e+002, 2.812052e+002
1.542351e+002, 2.806764e+002
1.547172e+002, 2.805244e+002
1.551993e+002, 2.811508e+002
1.556814e+002, 2.817145e+002
1.561635e+002, 2.820441e+002
1.566456e+002, 2.823270e+002
1.571278e+002, 2.828881e+002
1.576099e+002, 2.839210e+002
1.580920e+002, 2.851962e+002
1.585741e+002, 2.856909e+002
1.590562e+002, 2.845403e+002
1.595383e+002, 2.836928e+002
1.600205e+002, 2.833562e+002
1.605026e+002, 2.836483e+002
1.609847e+002, 2.849774e+002
1.614668e+002, 2.878408e+002
1.619489e+002, 2.917798e+002
1.624310e+002, 2.946436e+002
1.629131e+002, 2.964149e+002
1.633953e+002, 2.972691e+002
1.638774e+002, 2.966155e+002
1.643595e+002, 2.946527e+002
1.648416e+002, 2.933940e+002
1.653237e+002, 2.943942e+002
1.658058e+002, 2.969759e+002
1.662880e+002, 2.994114e+002
1.667701e+002, 3.014787e+002
1.672522e+002, 3.033798e+002
1.677343e+002, 3.053162e+002
1.682164e+002, 3.072898e+002
1.686985e+002, 3.092766e+002
1.691807e+002, 3.113885e+002
1.696628e+002, 3.134683e+002
1.701449e+002, 3.153091e+002
1.706270e+002, 3.168057e+002
1.711091e+002, 3.180218e+002
1.715912e+002, 3.191071e+002
1.720734e+002, 3.200974e+002
1.725555e+002, 3.208604e+002
1.730376e+002, 3.212033e+002
1.735197e+002, 3.213622e+002
1.740018e+002, 3.217399e+002
1.744839e+002, 3.227279e+002
1.749661e+002, 3.241109e+002
1.754482e+002, 3.245139e+002
1.759303e+002, 3.229305e+002
1.764124e+002, 3.214233e+002
1.768945e+002, 3.202741e+002
1.773766e+002, 3.196049e+002
1.778588e+002, 3.197147e+002
1.783409e+002, 3.210505e+002
1.788230e+002, 3.236368e+002
1.793051e+002, 3.242372e+002
1.797872e+002, 3.205190e+002
1.802693e+002, 3.171180e+002
1.807515e+002, 3.154951e+002
1.812336e+002, 3.153906e+002
1.817157e+002, 3.158376e+002
1.821978e+002, 3.160575e+002
1.826799e+002, 3.160372e+002
1.831620e+002, 3.158548e+002
1.836441e+002, 3.151687e+002
1.841263e+002, 3.146493e+002
1.846084e+002, 3.146701e+002
1.850905e+002, 3.152051e+002
1.855726e+002, 3.159727e+002
1.860547e+002, 3.167349e+002
1.865368e+002, 3.174908e+002
1.870190e+002, 3.182460e+002
1.875011e+002, 3.192301e+002
1.879832e+002, 3.200534e+002
1.884653e+002, 3.200839e+002
1.889474e+002, 3.193168e+002
1.894296e+002, 3.189223e+002
1.899117e+002, 3.202719e+002
1.903938e+002, 3.233287e+002
1.908759e+002, 3.260699e+002
1.913580e+002, 3.282739e+002
1.918401e+002, 3.300556e+002
1.923223e+002, 3.314666e+002
1.928044e+002, 3.324663e+002
1.932865e+002, 3.333471e+002
1.937686e+002, 3.341259e+002
1.942507e+002, 3.349236e+002
1.947328e+002, 3.363386e+002
1.952150e+002, 3.391762e+002
1.956971e+002, 3.426602e+002
1.961792e+002, 3.451968e+002
1.966613e+002, 3.463895e+002
1.971434e+002, 3.471971e+002
1.976255e+002, 3.486474e+002
1.981077e+002, 3.503786e+002
1.985898e+002, 3.513420e+002
1.990719e+002, 3.502054e+002
1.995540e+002, 3.476543e+002
2.000361e+002, 3.467562e+002
2.005182e+002, 3.484833e+002
2.010004e+002, 3.507169e+002
2.014825e+002, 3.526231e+002
2.019646e+002, 3.541127e+002
2.024467e+002, 3.549669e+002
2.029288e+002, 3.546527e+002
2.034109e+002, 3.532869e+002
2.038930e+002, 3.529050e+002
2.043752e+002, 3.542034e+002
2.048573e+002, 3.558766e+002
2.053394e+002, 3.574590e+002
2.058215e+002, 3.589952e+002
2.063036e+002, 3.606543e+002
2.067857e+002, 3.624025e+002
2.072679e+002, 3.641818e+002
2.077500e+002, 3.672053e+002
2.082321e+002, 3.723589e+002
2.087142e+002, 3.780406e+002
2.091963e+002, 3.844286e+002
2.096784e+002, 3.910276e+002
2.101606e+002, 3.968303e+002
2.106427e+002, 4.008381e+002
2.111248e+002, 4.027978e+002
2.116069e+002, 4.049813e+002
2.120890e+002, 4.081698e+002
2.125711e+002, 4.108425e+002
2.130533e+002, 4.126722e+002
2.135354e+002, 4.134911e+002
2.140175e+002, 4.130522e+002
2.144996e+002, 4.109898e+002
2.149817e+002, 4.069956e+002
2.154638e+002, 4.034543e+002
2.159460e+002, 4.010641e+002
2.164281e+002, 3.984075e+002
2.169102e+002, 3.942998e+002
2.173923e+002, 3.890528e+002
2.178744e+002, 3.840765e+002
2.183565e+002, 3.806480e+002
2.188387e+002, 3.789498e+002
2.193208e+002, 3.779923e+002
2.198029e+002, 3.785725e+002
2.202850e+002, 3.791522e+002
2.207671e+002, 3.786782e+002
2.212492e+002, 3.771816e+002
2.217314e+002, 3.754719e+002
2.222135e+002, 3.741491e+002
2.226956e+002, 3.732750e+002
2.231777e+002, 3.728532e+002
2.236598e+002, 3.726322e+002
2.241419e+002, 3.730259e+002
2.246240e+002, 3.747928e+002
2.251062e+002, 3.778715e+002
2.255883e+002, 3.807242e+002
2.260704e+002, 3.819822e+002
2.265525e+002, 3.817860e+002
2.270346e+002, 3.818048e+002
2.275167e+002, 3.821229e+002
2.279989e+002, 3.827041e+002
2.284810e+002, 3.839442e+002
2.289631e+002, 3.859070e+002
2.294452e+002, 3.869883e+002
2.299273e+002, 3.849860e+002
2.304094e+002, 3.811817e+002
2.308916e+002, 3.791608e+002
2.313737e+002, 3.811549e+002
2.318558e+002, 3.842856e+002
2.323379e+002, 3.852894e+002
2.328200e+002, 3.839669e+002
2.333021e+002, 3.819023e+002
2.337843e+002, 3.793418e+002
2.342664e+002, 3.768087e+002
2.347485e+002, 3.752039e+002
2.352306e+002, 3.750255e+002
2.357127e+002, 3.756449e+002
2.361948e+002, 3.763713e+002
2.366770e+002, 3.773078e+002
2.371591e+002, 3.779302e+002
2.376412e+002, 3.769832e+002
2.381233e+002, 3.758755e+002
2.386054e+002, 3.764535e+002
2.390875e+002, 3.798766e+002
2.395697e+002, 3.843693e+002
2.400518e+002, 3.868775e+002
2.405339e+002, 3.867068e+002
2.410160e+002, 3.868070e+002
2.414981e+002, 3.881315e+002
2.419802e+002, 3.903436e+002
2.424624e+002, 3.934099e+002
2.429445e+002, 3.974847e+002
2.434266e+002, 4.018647e+002
2.439087e+002, 4.051529e+002
2.443908e+002, 4.067137e+002
2.448729e+002, 4.089197e+002
2.453550e+002, 4.127092e+002
2.458372e+002, 4.172016e+002
2.463193e+002, 4.215836e+002
2.468014e+002, 4.255618e+002
2.472835e+002, 4.296684e+002
2.477656e+002, 4.351124e+002
2.482477e+002, 4.427426e+002
2.487299e+002, 4.496336e+002
2.492120e+002, 4.549445e+002
2.496941e+002, 4.595966e+002
2.501762e+002, 4.641874e+002
2.506583e+002, 4.689208e+002
2.511404e+002, 4.737228e+002
2.516226e+002, 4.785567e+002
2.521047e+002, 4.835313e+002
2.525868e+002, 4.882189e+002
2.530689e+002, 4.920593e+002
2.535510e+002, 4.959830e+002
2.540331e+002, 5.011830e+002
2.545153e+002, 5.077544e+002
2.549974e+002, 5.142142e+002
2.554795e+002, 5.180090e+002
2.559616e+002, 5.170388e+002
2.564437e+002, 5.179389e+002
2.569258e+002, 5.219398e+002
2.574080e+002, 5.266754e+002
2.578901e+002, 5.305673e+002
2.583722e+002, 5.333555e+002
2.588543e+002, 5.359349e+002
2.593364e+002, 5.396834e+002
2.598185e+002, 5.457401e+002
2.603007e+002, 5.499865e+002
2.607828e+002, 5.519970e+002
2.612649e+002, 5.529874e+002
2.617470e+002, 5.533790e+002
2.622291e+002, 5.533965e+002
2.627112e+002, 5.534126e+002
2.631934e+002, 5.540446e+002
2.636755e+002, 5.560623e+002
2.641576e+002, 5.556488e+002
2.646397e+002, 5.511796e+002
2.651218e+002, 5.461509e+002
2.656039e+002, 5.427452e+002
2.660861e+002, 5.408461e+002
2.665682e+002, 5.387273e+002
2.670503e+002, 5.345565e+002
2.675324e+002, 5.278243e+002
2.680145e+002, 5.223971e+002
2.684966e+002, 5.191057e+002
2.689788e+002, 5.160753e+002
2.694609e+002, 5.128810e+002
2.699430e+002, 5.092427e+002
2.704251e+002, 5.044745e+002
2.709072e+002, 4.976915e+002
2.713893e+002, 4.887860e+002
2.718715e+002, 4.825754e+002
2.723536e+002, 4.810565e+002
2.728357e+002, 4.796616e+002
2.733178e+002, 4.763956e+002
2.737999e+002, 4.716324e+002
2.742820e+002, 4.667719e+002
2.747642e+002, 4.627775e+002
2.752463e+002, 4.595413e+002
2.757284e+002, 4.558076e+002
2.762105e+002, 4.510388e+002
2.766926e+002, 4.464633e+002
2.771747e+002, 4.421858e+002
2.776568e+002, 4.383849e+002
2.781389e+002, 4.356548e+002
2.786211e+002, 4.345311e+002
2.791032e+002, 4.344135e+002
2.795853e+002, 4.326024e+002
2.800674e+002, 4.269134e+002
2.805495e+002, 4.224246e+002
2.810316e+002, 4.211132e+002
2.815138e+002, 4.217698e+002
2.819959e+002, 4.223651e+002
2.824780e+002, 4.220803e+002
2.829601e+002, 4.210884e+002
2.834422e+002, 4.196947e+002
2.839243e+002, 4.172347e+002
2.844065e+002, 4.156348e+002
2.848886e+002, 4.160052e+002
2.853707e+002, 4.172869e+002
2.858528e+002, 4.178135e+002
2.863349e+002, 4.169753e+002
2.868170e+002, 4.156344e+002
2.872992e+002, 4.152101e+002
2.877813e+002, 4.157544e+002
2.882634e+002, 4.168932e+002
2.887455e+002, 4.188719e+002
2.892276e+002, 4.213000e+002
2.897097e+002, 4.238473e+002
2.901919e+002, 4.264592e+002
2.906740e+002, 4.287913e+002
2.911561e+002, 4.302883e+002
2.916382e+002, 4.307909e+002
2.921203e+002, 4.316737e+002
2.926024e+002, 4.330223e+002
2.930846e+002, 4.348373e+002
2.935667e+002, 4.374853e+002
2.940488e+002, 4.409877e+002
2.945309e+002, 4.441008e+002
2.950130e+002, 4.453849e+002
2.954951e+002, 4.448239e+002
2.959773e+002, 4.453284e+002
2.964594e+002, 4.476229e+002
2.969415e+002, 4.505628e+002
2.974236e+002, 4.536592e+002
2.979057e+002, 4.567696e+002
2.983878e+002, 4.591205e+002
2.988700e+002, 4.598627e+002
2.993521e+002, 4.593012e+002
2.998342e+002, 4.596463e+002
3.003163e+002, 4.620795e+002
3.007984e+002, 4.643232e+002
3.012805e+002, 4.644474e+002
3.017627e+002, 4.629899e+002
3.022448e+002, 4.625094e+002
3.027269e+002, 4.645521e+002
3.032090e+002, 4.683783e+002
3.036911e+002, 4.716288e+002
3.041732e+002, 4.741405e+002
3.046554e+002, 4.764505e+002
3.051375e+002, 4.791185e+002
3.056196e+002, 4.817961e+002
3.061017e+002, 4.834114e+002
3.065838e+002, 4.833115e+002
3.070659e+002, 4.824282e+002
3.075481e+002, 4.827101e+002
3.080302e+002, 4.845161e+002
3.085123e+002, 4.858431e+002
3.089944e+002, 4.855829e+002
3.094765e+002, 4.845198e+002
3.099586e+002, 4.841309e+002
3.104408e+002, 4.849124e+002
3.109229e+002, 4.858882e+002
3.114050e+002, 4.855483e+002
3.118871e+002, 4.838431e+002
3.123692e+002, 4.825858e+002
3.128513e+002, 4.826749e+002
3.133335e+002, 4.831414e+002
3.138156e+002, 4.825366e+002
3.142977e+002, 4.806014e+002
3.147798e+002, 4.789514e+002
3.152619e+002, 4.796234e+002
3.157440e+002, 4.823552e+002
3.162262e+002, 4.832139e+002
3.167083e+002, 4.807804e+002
3.171904e+002, 4.771337e+002
3.176725e+002, 4.733455e+002
3.181546e+002, 4.695907e+002
3.186367e+002, 4.670710e+002
3.191188e+002, 4.668658e+002
3.196010e+002, 4.686292e+002
3.200831e+002, 4.700970e+002
3.205652e+002, 4.716020e+002
3.210473e+002, 4.725115e+002
3.215294e+002, 4.720811e+002
3.220115e+002, 4.706658e+002
3.224937e+002, 4.694957e+002
3.229758e+002, 4.691279e+002
3.234579e+002, 4.693884e+002
3.239400e+002, 4.698161e+002
3.244221e+002, 4.703228e+002
3.249042e+002, 4.711283e+002
3.253864e+002, 4.725417e+002
3.258685e+002, 4.742770e+002
3.263506e+002, 4.758407e+002
3.268327e+002, 4.770989e+002
3.273148e+002, 4.780697e+002
3.277969e+002, 4.786056e+002
3.282791e+002, 4.785374e+002
3.287612e+002, 4.790287e+002
3.292433e+002, 4.803289e+002
3.297254e+002, 4.822843e+002
3.302075e+002, 4.849062e+002
3.306896e+002, 4.881972e+002
3.311718e+002, 4.915786e+002
3.316539e+002, 4.944044e+002
3.321360e+002, 4.966189e+002
3.326181e+002, 4.993522e+002
3.331002e+002, 5.030667e+002
3.335823e+002, 5.069671e+002
3.340645e+002, 5.102357e+002
3.345466e+002, 5.129766e+002
3.350287e+002, 5.163104e+002
3.355108e+002, 5.211453e+002
3.359929e+002, 5.272592e+002
3.364750e+002, 5.327156e+002
3.369572e+002, 5.372905e+002
3.374393e+002, 5.415879e+002
3.379214e+002, 5.455673e+002
3.384035e+002, 5.494639e+002
3.388856e+002, 5.539523e+002
3.393677e+002, 5.595007e+002
3.398499e+002, 5.654535e+002
3.403320e+002, 5.698605e+002
3.408141e+002, 5.716820e+002
3.412962e+002, 5.740719e+002
3.417783e+002, 5.783559e+002
3.422604e+002, 5.832767e+002
3.427426e+002, 5.871639e+002
3.432247e+002, 5.895270e+002
3.437068e+002, 5.910502e+002
3.441889e+002, 5.926609e+002
3.446710e+002, 5.945229e+002
3.451531e+002, 5.959034e+002
3.456353e+002, 5.963422e+002
3.461174e+002, 5.966068e+002
3.465995e+002, 5.972311e+002
3.470816e+002, 5.982731e+002
3.475637e+002, 5.996856e+002
3.480458e+002, 6.016307e+002
3.485280e+002, 6.041926e+002
3.490101e+002, 6.048362e+002
3.494922e+002, 6.027338e+002
3.499743e+002, 5.999194e+002
3.504564e+002, 5.962609e+002
3.509385e+002, 5.925614e+002
3.514207e+002, 5.906666e+002
3.519028e+002, 5.918663e+002
3.523849e+002, 5.952464e+002
3.528670e+002, 5.968693e+002
3.533491e+002, 5.965387e+002
3.538312e+002, 5.947190e+002
3.543134e+002, 5.897640e+002
3.547955e+002, 5.840132e+002
3.552776e+002, 5.806341e+002
3.557597e+002, 5.806546e+002
3.562418e+002, 5.818239e+002
3.567239e+002, 5.802571e+002
3.572061e+002, 5.741987e+002
3.576882e+002, 5.687997e+002
3.581703e+002, 5.638925e+002
3.586524e+002, 5.596813e+002
3.591345e+002, 5.570140e+002
3.596166e+002, 5.555081e+002
3.600987e+002, 5.533609e+002
3.605808e+002, 5.485422e+002
3.610630e+002, 5.405777e+002
3.615451e+002, 5.345478e+002
3.620272e+002, 5.320698e+002
3.625093e+002, 5.297173e+002
3.629914e+002, 5.263044e+002
3.634735e+002, 5.221693e+002
3.639557e+002, 5.181862e+002
3.644378e+002, 5.148829e+002
3.649199e+002, 5.121142e+002
3.654020e+002, 5.092774e+002
3.658841e+002, 5.065448e+002
3.663662e+002, 5.034801e+002
3.668484e+002, 4.993728e+002
3.673305e+002, 4.952719e+002
3.678126e+002, 4.921767e+002
3.682947e+002, 4.904196e+002
3.687768e+002, 4.896271e+002
3.692589e+002, 4.893935e+002
3.697411e+002, 4.901373e+002
3.702232e+002, 4.902829e+002
3.707053e+002, 4.894412e+002
3.711874e+002, 4.883143e+002
3.716695e+002, 4.868766e+002
3.721516e+002, 4.853866e+002
3.726338e+002, 4.845084e+002
3.731159e+002, 4.849585e+002
3.735980e+002, 4.866930e+002
3.740801e+002, 4.883472e+002
3.745622e+002, 4.898813e+002
3.750443e+002, 4.913761e+002
3.755265e+002, 4.926923e+002
3.760086e+002, 4.940249e+002
3.764907e+002, 4.955700e+002
3.769728e+002, 4.973452e+002
3.774549e+002, 4.995971e+002
3.779370e+002, 5.031421e+002
3.784192e+002, 5.086626e+002
3.789013e+002, 5.135309e+002
3.793834e+002, 5.166262e+002
3.798655e+002, 5.190467e+002
3.803476e+002, 5.214095e+002
3.808297e+002, 5.238525e+002
3.813119e+002, 5.266696e+002
3.817940e+002, 5.305561e+002
3.822761e+002, 5.354802e+002
3.827582e+002, 5.391976e+002
3.832403e+002, 5.403004e+002
3.837224e+002, 5.414745e+002
3.842046e+002, 5.448856e+002
3.846867e+002, 5.499635e+002
3.851688e+002, 5.546945e+002
3.856509e+002, 5.574861e+002
3.861330e+002, 5.592308e+002
3.866151e+002, 5.619818e+002
3.870973e+002, 5.658698e+002
3.875794e+002, 5.702770e+002
3.880615e+002, 5.758634e+002
3.885436e+002, 5.814846e+002
3.890257e+002, 5.852150e+002
3.895078e+002, 5.858271e+002
3.899900e+002, 5.860518e+002
3.904721e+002, 5.883788e+002
3.909542e+002, 5.925878e+002
3.914363e+002, 5.969484e+002
3.919184e+002, 6.010728e+002
3.924005e+002, 6.048841e+002
3.928827e+002, 6.083648e+002
3.933648e+002, 6.115524e+002
3.938469e+002, 6.142625e+002
3.943290e+002, 6.158971e+002
3.948111e+002, 6.171754e+002
3.952932e+002, 6.194450e+002
3.957754e+002, 6.230187e+002
3.962575e+002, 6.264868e+002
3.967396e+002, 6.283734e+002
3.972217e+002, 6.288666e+002
3.977038e+002, 6.303072e+002
3.981859e+002, 6.327592e+002
3.986681e+002, 6.362377e+002
3.991501e+002, 6.416636e+002
3.996323e+002, 6.483417e+002
4.001144e+002, 6.535707e+002
4.005965e+002, 6.555887e+002
4.010786e+002, 6.559426e+002
4.015607e+002, 6.592607e+002
4.020428e+002, 6.671544e+002
4.025250e+002, 6.746566e+002
4.030071e+002, 6.799000e+002
