##NAMES=Yeatmanite
##RRUFFID=R141001
##IDEAL CHEMISTRY=Zn^2+^_6_Mn^2+^_9_Sb^5+^_2_O_12_(SiO_4_)_4_
##LOCALITY=1500 foot level, Sterling mine, Sterling Hill, Ogdensburg, Franklin Mining District, Sussex County, New Jersey, USA
##OWNER=RRUFF
##SOURCE=Rock Currier
##DESCRIPTION=Thin brown or grey platy crystals, associated with yellow adelite. Twinned by a 2-fold around (001). Previously published structure is probably incorrect.
##STATUS=The identification of this mineral has been confirmed by single-crystal X-ray diffraction.
##URL=rruff.info/R141001
8.813672e+001, 2.987489e+002
8.861884e+001, 3.036995e+002
8.910095e+001, 3.079120e+002
8.958307e+001, 3.113694e+002
9.006519e+001, 3.153568e+002
9.054730e+001, 3.211280e+002
9.102942e+001, 3.301825e+002
9.151154e+001, 3.388212e+002
9.199365e+001, 3.423252e+002
9.247577e+001, 3.415097e+002
9.295789e+001, 3.401971e+002
9.344000e+001, 3.409790e+002
9.392212e+001, 3.430552e+002
9.440424e+001, 3.450807e+002
9.488635e+001, 3.476138e+002
9.536847e+001, 3.501301e+002
9.585059e+001, 3.508771e+002
9.633270e+001, 3.497197e+002
9.681482e+001, 3.484701e+002
9.729694e+001, 3.486089e+002
9.777905e+001, 3.501008e+002
9.826117e+001, 3.526399e+002
9.874329e+001, 3.563430e+002
9.922540e+001, 3.610301e+002
9.970752e+001, 3.657386e+002
1.001896e+002, 3.704771e+002
1.006718e+002, 3.750245e+002
1.011539e+002, 3.789497e+002
1.016360e+002, 3.820732e+002
1.021181e+002, 3.853752e+002
1.026002e+002, 3.893906e+002
1.030823e+002, 3.944432e+002
1.035645e+002, 3.981996e+002
1.040466e+002, 4.003844e+002
1.045287e+002, 4.015591e+002
1.050108e+002, 4.025981e+002
1.054929e+002, 4.025624e+002
1.059750e+002, 4.037751e+002
1.064572e+002, 4.075244e+002
1.069393e+002, 4.173985e+002
1.074214e+002, 4.232310e+002
1.079035e+002, 4.231791e+002
1.083856e+002, 4.189228e+002
1.088677e+002, 4.163065e+002
1.093499e+002, 4.161873e+002
1.098320e+002, 4.170541e+002
1.103141e+002, 4.182608e+002
1.107962e+002, 4.194957e+002
1.112783e+002, 4.214373e+002
1.117604e+002, 4.241637e+002
1.122426e+002, 4.276757e+002
1.127247e+002, 4.318150e+002
1.132068e+002, 4.367049e+002
1.136889e+002, 4.421447e+002
1.141710e+002, 4.479488e+002
1.146531e+002, 4.554584e+002
1.151353e+002, 4.620003e+002
1.156174e+002, 4.664501e+002
1.160995e+002, 4.687761e+002
1.165816e+002, 4.712282e+002
1.170637e+002, 4.753707e+002
1.175458e+002, 4.798167e+002
1.180280e+002, 4.831089e+002
1.185101e+002, 4.834594e+002
1.189922e+002, 4.833039e+002
1.194743e+002, 4.839085e+002
1.199564e+002, 4.853564e+002
1.204385e+002, 4.875338e+002
1.209207e+002, 4.901280e+002
1.214028e+002, 4.934164e+002
1.218849e+002, 4.978678e+002
1.223670e+002, 5.058805e+002
1.228491e+002, 5.142670e+002
1.233312e+002, 5.195597e+002
1.238134e+002, 5.210912e+002
1.242955e+002, 5.206353e+002
1.247776e+002, 5.187825e+002
1.252597e+002, 5.160031e+002
1.257418e+002, 5.138699e+002
1.262239e+002, 5.134547e+002
1.267061e+002, 5.143505e+002
1.271882e+002, 5.156801e+002
1.276703e+002, 5.171561e+002
1.281524e+002, 5.193728e+002
1.286345e+002, 5.240159e+002
1.291166e+002, 5.308145e+002
1.295988e+002, 5.369695e+002
1.300809e+002, 5.397565e+002
1.305630e+002, 5.399189e+002
1.310451e+002, 5.407377e+002
1.315272e+002, 5.431299e+002
1.320093e+002, 5.463043e+002
1.324915e+002, 5.482923e+002
1.329736e+002, 5.489659e+002
1.334557e+002, 5.495163e+002
1.339378e+002, 5.511432e+002
1.344199e+002, 5.538204e+002
1.349020e+002, 5.562197e+002
1.353842e+002, 5.578575e+002
1.358663e+002, 5.589086e+002
1.363484e+002, 5.604276e+002
1.368305e+002, 5.623601e+002
1.373126e+002, 5.648947e+002
1.377947e+002, 5.685469e+002
1.382769e+002, 5.736736e+002
1.387590e+002, 5.781592e+002
1.392411e+002, 5.815984e+002
1.397232e+002, 5.840176e+002
1.402053e+002, 5.844406e+002
1.406874e+002, 5.822692e+002
1.411696e+002, 5.789124e+002
1.416517e+002, 5.761760e+002
1.421338e+002, 5.740619e+002
1.426159e+002, 5.726107e+002
1.430980e+002, 5.719883e+002
1.435801e+002, 5.724476e+002
1.440623e+002, 5.726501e+002
1.445444e+002, 5.725416e+002
1.450265e+002, 5.722510e+002
1.455086e+002, 5.719631e+002
1.459907e+002, 5.715457e+002
1.464728e+002, 5.713566e+002
1.469550e+002, 5.717327e+002
1.474371e+002, 5.736875e+002
1.479192e+002, 5.738562e+002
1.484013e+002, 5.710850e+002
1.488834e+002, 5.666644e+002
1.493655e+002, 5.633613e+002
1.498477e+002, 5.613295e+002
1.503298e+002, 5.603079e+002
1.508119e+002, 5.603382e+002
1.512940e+002, 5.631482e+002
1.517761e+002, 5.644540e+002
1.522583e+002, 5.628147e+002
1.527404e+002, 5.593990e+002
1.532225e+002, 5.575096e+002
1.537046e+002, 5.590142e+002
1.541867e+002, 5.609649e+002
1.546688e+002, 5.620262e+002
1.551510e+002, 5.618876e+002
1.556331e+002, 5.610750e+002
1.561152e+002, 5.592637e+002
1.565973e+002, 5.567178e+002
1.570794e+002, 5.545087e+002
1.575615e+002, 5.527292e+002
1.580437e+002, 5.514225e+002
1.585258e+002, 5.506152e+002
1.590079e+002, 5.510058e+002
1.594900e+002, 5.511785e+002
1.599721e+002, 5.503228e+002
1.604542e+002, 5.487013e+002
1.609364e+002, 5.478361e+002
1.614185e+002, 5.488137e+002
1.619006e+002, 5.505143e+002
1.623827e+002, 5.520371e+002
1.628648e+002, 5.539445e+002
1.633469e+002, 5.548903e+002
1.638291e+002, 5.536608e+002
1.643112e+002, 5.504920e+002
1.647933e+002, 5.477047e+002
1.652754e+002, 5.469809e+002
1.657575e+002, 5.470352e+002
1.662396e+002, 5.465168e+002
1.667218e+002, 5.434055e+002
1.672039e+002, 5.407229e+002
1.676860e+002, 5.409816e+002
1.681681e+002, 5.441135e+002
1.686502e+002, 5.471058e+002
1.691323e+002, 5.478238e+002
1.696145e+002, 5.472656e+002
1.700966e+002, 5.467815e+002
1.705787e+002, 5.472302e+002
1.710608e+002, 5.477952e+002
1.715429e+002, 5.477750e+002
1.720250e+002, 5.471403e+002
1.725072e+002, 5.461839e+002
1.729893e+002, 5.446029e+002
1.734714e+002, 5.428728e+002
1.739535e+002, 5.418713e+002
1.744356e+002, 5.425233e+002
1.749177e+002, 5.438735e+002
1.753999e+002, 5.449257e+002
1.758820e+002, 5.456622e+002
1.763641e+002, 5.459495e+002
1.768462e+002, 5.452554e+002
1.773283e+002, 5.439635e+002
1.778104e+002, 5.430675e+002
1.782926e+002, 5.430415e+002
1.787747e+002, 5.437039e+002
1.792568e+002, 5.450493e+002
1.797389e+002, 5.471915e+002
1.802210e+002, 5.491627e+002
1.807031e+002, 5.496675e+002
1.811853e+002, 5.489887e+002
1.816674e+002, 5.481240e+002
1.821495e+002, 5.471340e+002
1.826316e+002, 5.463474e+002
1.831137e+002, 5.468147e+002
1.835958e+002, 5.488192e+002
1.840780e+002, 5.511825e+002
1.845601e+002, 5.523240e+002
1.850422e+002, 5.523881e+002
1.855243e+002, 5.524283e+002
1.860064e+002, 5.532120e+002
1.864885e+002, 5.544691e+002
1.869707e+002, 5.551285e+002
1.874528e+002, 5.550502e+002
1.879349e+002, 5.546250e+002
1.884170e+002, 5.544122e+002
1.888991e+002, 5.544016e+002
1.893812e+002, 5.544089e+002
1.898634e+002, 5.543131e+002
1.903455e+002, 5.541332e+002
1.908276e+002, 5.539967e+002
1.913097e+002, 5.538977e+002
1.917918e+002, 5.538478e+002
1.922739e+002, 5.539842e+002
1.927561e+002, 5.543180e+002
1.932382e+002, 5.543915e+002
1.937203e+002, 5.536970e+002
1.942024e+002, 5.523217e+002
1.946845e+002, 5.515016e+002
1.951666e+002, 5.513882e+002
1.956488e+002, 5.517712e+002
1.961309e+002, 5.523585e+002
1.966130e+002, 5.531974e+002
1.970951e+002, 5.539276e+002
1.975772e+002, 5.544670e+002
1.980593e+002, 5.548232e+002
1.985415e+002, 5.545236e+002
1.990236e+002, 5.533583e+002
1.995057e+002, 5.517438e+002
1.999878e+002, 5.506463e+002
2.004699e+002, 5.501328e+002
2.009520e+002, 5.498055e+002
2.014342e+002, 5.496073e+002
2.019163e+002, 5.495960e+002
2.023984e+002, 5.489072e+002
2.028805e+002, 5.472165e+002
2.033626e+002, 5.450507e+002
2.038447e+002, 5.438936e+002
2.043269e+002, 5.440466e+002
2.048090e+002, 5.441141e+002
2.052911e+002, 5.429763e+002
2.057732e+002, 5.402649e+002
2.062553e+002, 5.389608e+002
2.067374e+002, 5.397934e+002
2.072196e+002, 5.417877e+002
2.077017e+002, 5.420867e+002
2.081838e+002, 5.401391e+002
2.086659e+002, 5.380186e+002
2.091480e+002, 5.370245e+002
2.096301e+002, 5.374896e+002
2.101123e+002, 5.375109e+002
2.105944e+002, 5.368953e+002
2.110765e+002, 5.358201e+002
2.115586e+002, 5.347050e+002
2.120407e+002, 5.334039e+002
2.125228e+002, 5.323926e+002
2.130050e+002, 5.320316e+002
2.134871e+002, 5.325331e+002
2.139692e+002, 5.329179e+002
2.144513e+002, 5.332167e+002
2.149334e+002, 5.333289e+002
2.154155e+002, 5.328401e+002
2.158977e+002, 5.313632e+002
2.163798e+002, 5.300256e+002
2.168619e+002, 5.296411e+002
2.173440e+002, 5.308329e+002
2.178261e+002, 5.308743e+002
2.183082e+002, 5.289872e+002
2.187904e+002, 5.260602e+002
2.192725e+002, 5.250444e+002
2.197546e+002, 5.269898e+002
2.202367e+002, 5.289812e+002
2.207188e+002, 5.294631e+002
2.212009e+002, 5.278967e+002
2.216831e+002, 5.262635e+002
2.221652e+002, 5.245361e+002
2.226473e+002, 5.228105e+002
2.231294e+002, 5.213840e+002
2.236115e+002, 5.201811e+002
2.240936e+002, 5.194030e+002
2.245758e+002, 5.190978e+002
2.250579e+002, 5.191415e+002
2.255400e+002, 5.201489e+002
2.260221e+002, 5.229151e+002
2.265042e+002, 5.264465e+002
2.269863e+002, 5.277386e+002
2.274685e+002, 5.255304e+002
2.279506e+002, 5.230626e+002
2.284327e+002, 5.218641e+002
2.289148e+002, 5.226592e+002
2.293969e+002, 5.229814e+002
2.298790e+002, 5.225652e+002
2.303612e+002, 5.217312e+002
2.308433e+002, 5.212505e+002
2.313254e+002, 5.209820e+002
2.318075e+002, 5.212630e+002
2.322896e+002, 5.224492e+002
2.327717e+002, 5.254464e+002
2.332539e+002, 5.270175e+002
2.337360e+002, 5.264625e+002
2.342181e+002, 5.246959e+002
2.347002e+002, 5.237706e+002
2.351823e+002, 5.238310e+002
2.356644e+002, 5.245282e+002
2.361466e+002, 5.259772e+002
2.366287e+002, 5.290139e+002
2.371108e+002, 5.304166e+002
2.375929e+002, 5.293959e+002
2.380750e+002, 5.270515e+002
2.385571e+002, 5.256329e+002
2.390393e+002, 5.254398e+002
2.395214e+002, 5.257162e+002
2.400035e+002, 5.263698e+002
2.404856e+002, 5.278735e+002
2.409677e+002, 5.282879e+002
2.414498e+002, 5.270432e+002
2.419320e+002, 5.250247e+002
2.424141e+002, 5.237499e+002
2.428962e+002, 5.233446e+002
2.433783e+002, 5.235051e+002
2.438604e+002, 5.242343e+002
2.443425e+002, 5.257380e+002
2.448247e+002, 5.271215e+002
2.453068e+002, 5.285909e+002
2.457889e+002, 5.298176e+002
2.462710e+002, 5.301717e+002
2.467531e+002, 5.289211e+002
2.472352e+002, 5.280591e+002
2.477174e+002, 5.283708e+002
2.481995e+002, 5.302238e+002
2.486816e+002, 5.312989e+002
2.491637e+002, 5.311679e+002
2.496458e+002, 5.305712e+002
2.501279e+002, 5.306004e+002
2.506101e+002, 5.316505e+002
2.510922e+002, 5.325716e+002
2.515743e+002, 5.330112e+002
2.520564e+002, 5.329028e+002
2.525385e+002, 5.328105e+002
2.530206e+002, 5.326545e+002
2.535028e+002, 5.325886e+002
2.539849e+002, 5.328704e+002
2.544670e+002, 5.338107e+002
2.549491e+002, 5.344340e+002
2.554312e+002, 5.343506e+002
2.559133e+002, 5.334938e+002
2.563955e+002, 5.332405e+002
2.568776e+002, 5.338791e+002
2.573597e+002, 5.348005e+002
2.578418e+002, 5.352762e+002
2.583239e+002, 5.349164e+002
2.588061e+002, 5.350728e+002
2.592882e+002, 5.362805e+002
2.597703e+002, 5.385143e+002
2.602524e+002, 5.397759e+002
2.607345e+002, 5.397420e+002
2.612166e+002, 5.392086e+002
2.616988e+002, 5.389048e+002
2.621809e+002, 5.389982e+002
2.626630e+002, 5.388311e+002
2.631451e+002, 5.381200e+002
2.636272e+002, 5.369791e+002
2.641093e+002, 5.365112e+002
2.645915e+002, 5.368445e+002
2.650736e+002, 5.376262e+002
2.655557e+002, 5.387902e+002
2.660378e+002, 5.406429e+002
2.665199e+002, 5.416877e+002
2.670020e+002, 5.414744e+002
2.674842e+002, 5.402878e+002
2.679663e+002, 5.395090e+002
2.684484e+002, 5.390948e+002
2.689305e+002, 5.391755e+002
2.694126e+002, 5.400422e+002
2.698947e+002, 5.420096e+002
2.703769e+002, 5.433544e+002
2.708590e+002, 5.437141e+002
2.713411e+002, 5.434441e+002
2.718232e+002, 5.436617e+002
2.723053e+002, 5.444303e+002
2.727874e+002, 5.454798e+002
2.732696e+002, 5.468020e+002
2.737517e+002, 5.485002e+002
2.742338e+002, 5.497370e+002
2.747159e+002, 5.504088e+002
2.751980e+002, 5.506607e+002
2.756801e+002, 5.507571e+002
2.761623e+002, 5.506680e+002
2.766444e+002, 5.505784e+002
2.771265e+002, 5.506146e+002
2.776086e+002, 5.507977e+002
2.780907e+002, 5.508344e+002
2.785728e+002, 5.506390e+002
2.790550e+002, 5.504309e+002
2.795371e+002, 5.508122e+002
2.800192e+002, 5.519160e+002
2.805013e+002, 5.525126e+002
2.809834e+002, 5.515018e+002
2.814655e+002, 5.489606e+002
2.819477e+002, 5.484744e+002
2.824298e+002, 5.506384e+002
2.829119e+002, 5.532863e+002
2.833940e+002, 5.528505e+002
2.838761e+002, 5.492330e+002
2.843582e+002, 5.464046e+002
2.848404e+002, 5.463762e+002
2.853225e+002, 5.485624e+002
2.858046e+002, 5.493444e+002
2.862867e+002, 5.485424e+002
2.867688e+002, 5.471389e+002
2.872509e+002, 5.461639e+002
2.877331e+002, 5.455919e+002
2.882152e+002, 5.450652e+002
2.886973e+002, 5.445888e+002
2.891794e+002, 5.440533e+002
2.896615e+002, 5.428456e+002
2.901436e+002, 5.408792e+002
2.906258e+002, 5.392496e+002
2.911079e+002, 5.394268e+002
2.915900e+002, 5.410280e+002
2.920721e+002, 5.419361e+002
2.925542e+002, 5.415258e+002
2.930363e+002, 5.402127e+002
2.935185e+002, 5.385969e+002
2.940006e+002, 5.366768e+002
2.944827e+002, 5.349743e+002
2.949648e+002, 5.338975e+002
2.954469e+002, 5.333260e+002
2.959290e+002, 5.329362e+002
2.964112e+002, 5.327195e+002
2.968933e+002, 5.325458e+002
2.973754e+002, 5.322984e+002
2.978575e+002, 5.319528e+002
2.983396e+002, 5.313668e+002
2.988217e+002, 5.301473e+002
2.993039e+002, 5.286556e+002
2.997860e+002, 5.276165e+002
3.002681e+002, 5.271122e+002
3.007502e+002, 5.270690e+002
3.012323e+002, 5.277238e+002
3.017144e+002, 5.288621e+002
3.021966e+002, 5.297132e+002
3.026787e+002, 5.299174e+002
3.031608e+002, 5.295871e+002
3.036429e+002, 5.286705e+002
3.041250e+002, 5.270735e+002
3.046071e+002, 5.256243e+002
3.050893e+002, 5.252890e+002
3.055714e+002, 5.256673e+002
3.060535e+002, 5.259322e+002
3.065356e+002, 5.254241e+002
3.070177e+002, 5.248019e+002
3.074998e+002, 5.249445e+002
3.079820e+002, 5.258779e+002
3.084641e+002, 5.264515e+002
3.089462e+002, 5.256400e+002
3.094283e+002, 5.240243e+002
3.099104e+002, 5.223983e+002
3.103925e+002, 5.209531e+002
3.108747e+002, 5.197060e+002
3.113568e+002, 5.185339e+002
3.118389e+002, 5.175023e+002
3.123210e+002, 5.170794e+002
3.128031e+002, 5.178787e+002
3.132852e+002, 5.192487e+002
3.137674e+002, 5.206176e+002
3.142495e+002, 5.221987e+002
3.147316e+002, 5.232475e+002
3.152137e+002, 5.230903e+002
3.156958e+002, 5.220128e+002
3.161779e+002, 5.209787e+002
3.166601e+002, 5.201624e+002
3.171422e+002, 5.196605e+002
3.176243e+002, 5.195966e+002
3.181064e+002, 5.201962e+002
3.185885e+002, 5.207838e+002
3.190706e+002, 5.212321e+002
3.195528e+002, 5.215024e+002
3.200349e+002, 5.215236e+002
3.205170e+002, 5.209806e+002
3.209991e+002, 5.204222e+002
3.214812e+002, 5.201702e+002
3.219633e+002, 5.204233e+002
3.224455e+002, 5.203343e+002
3.229276e+002, 5.191677e+002
3.234097e+002, 5.177502e+002
3.238918e+002, 5.170980e+002
3.243739e+002, 5.181554e+002
3.248560e+002, 5.192255e+002
3.253382e+002, 5.199215e+002
3.258203e+002, 5.202155e+002
3.263024e+002, 5.203195e+002
3.267845e+002, 5.201605e+002
3.272666e+002, 5.198767e+002
3.277487e+002, 5.195753e+002
3.282309e+002, 5.192957e+002
3.287130e+002, 5.189681e+002
3.291951e+002, 5.187487e+002
3.296772e+002, 5.185743e+002
3.301593e+002, 5.177413e+002
3.306414e+002, 5.151505e+002
3.311236e+002, 5.129499e+002
3.316057e+002, 5.124363e+002
3.320878e+002, 5.153173e+002
3.325699e+002, 5.167188e+002
3.330520e+002, 5.155751e+002
3.335341e+002, 5.130061e+002
3.340163e+002, 5.122447e+002
3.344984e+002, 5.142263e+002
3.349805e+002, 5.164579e+002
3.354626e+002, 5.180257e+002
3.359447e+002, 5.189420e+002
3.364268e+002, 5.190529e+002
3.369090e+002, 5.180136e+002
3.373911e+002, 5.165314e+002
3.378732e+002, 5.159586e+002
3.383553e+002, 5.167831e+002
3.388374e+002, 5.167993e+002
3.393195e+002, 5.149156e+002
3.398017e+002, 5.112558e+002
3.402838e+002, 5.088763e+002
3.407659e+002, 5.079091e+002
3.412480e+002, 5.078929e+002
3.417301e+002, 5.087159e+002
3.422122e+002, 5.104762e+002
3.426944e+002, 5.114784e+002
3.431765e+002, 5.110615e+002
3.436586e+002, 5.097472e+002
3.441407e+002, 5.093184e+002
3.446228e+002, 5.098179e+002
3.451049e+002, 5.106554e+002
3.455871e+002, 5.114918e+002
3.460692e+002, 5.123177e+002
3.465513e+002, 5.130484e+002
3.470334e+002, 5.137410e+002
3.475155e+002, 5.141992e+002
3.479977e+002, 5.139269e+002
3.484798e+002, 5.129999e+002
3.489619e+002, 5.120698e+002
3.494440e+002, 5.115157e+002
3.499261e+002, 5.112291e+002
3.504082e+002, 5.110083e+002
3.508904e+002, 5.108598e+002
3.513725e+002, 5.106596e+002
3.518546e+002, 5.101095e+002
3.523367e+002, 5.093854e+002
3.528188e+002, 5.089408e+002
3.533009e+002, 5.092971e+002
3.537831e+002, 5.098662e+002
3.542652e+002, 5.097340e+002
3.547473e+002, 5.089466e+002
3.552294e+002, 5.085101e+002
3.557115e+002, 5.098755e+002
3.561936e+002, 5.118142e+002
3.566758e+002, 5.126491e+002
3.571579e+002, 5.112043e+002
3.576400e+002, 5.094095e+002
3.581221e+002, 5.084820e+002
3.586042e+002, 5.083288e+002
3.590863e+002, 5.085748e+002
3.595685e+002, 5.093584e+002
3.600506e+002, 5.102758e+002
3.605327e+002, 5.110365e+002
3.610148e+002, 5.115753e+002
3.614969e+002, 5.120051e+002
3.619790e+002, 5.122476e+002
3.624612e+002, 5.124288e+002
3.629433e+002, 5.127637e+002
3.634254e+002, 5.133224e+002
3.639075e+002, 5.140368e+002
3.643896e+002, 5.150939e+002
3.648717e+002, 5.166307e+002
3.653539e+002, 5.174418e+002
3.658360e+002, 5.165125e+002
3.663181e+002, 5.151110e+002
3.668002e+002, 5.143799e+002
3.672823e+002, 5.155143e+002
3.677644e+002, 5.161395e+002
3.682466e+002, 5.155157e+002
3.687287e+002, 5.137941e+002
3.692108e+002, 5.128303e+002
3.696929e+002, 5.131757e+002
3.701750e+002, 5.137911e+002
3.706571e+002, 5.141467e+002
3.711393e+002, 5.140126e+002
3.716214e+002, 5.140439e+002
3.721035e+002, 5.143522e+002
3.725856e+002, 5.148007e+002
3.730677e+002, 5.150539e+002
3.735498e+002, 5.150018e+002
3.740320e+002, 5.149828e+002
3.745141e+002, 5.152042e+002
3.749962e+002, 5.157452e+002
3.754783e+002, 5.157789e+002
3.759604e+002, 5.151321e+002
3.764425e+002, 5.142642e+002
3.769247e+002, 5.137189e+002
3.774068e+002, 5.135384e+002
3.778889e+002, 5.134471e+002
3.783710e+002, 5.134032e+002
3.788531e+002, 5.133907e+002
3.793352e+002, 5.133329e+002
3.798174e+002, 5.132213e+002
3.802995e+002, 5.131212e+002
3.807816e+002, 5.131825e+002
3.812637e+002, 5.133583e+002
3.817458e+002, 5.132170e+002
3.822279e+002, 5.126362e+002
3.827101e+002, 5.118443e+002
3.831922e+002, 5.112422e+002
3.836743e+002, 5.107843e+002
3.841564e+002, 5.101887e+002
3.846385e+002, 5.087920e+002
3.851206e+002, 5.072486e+002
3.856028e+002, 5.071556e+002
3.860849e+002, 5.086941e+002
3.865670e+002, 5.103442e+002
3.870491e+002, 5.104355e+002
3.875312e+002, 5.096329e+002
3.880133e+002, 5.092841e+002
3.884955e+002, 5.105146e+002
3.889776e+002, 5.118741e+002
3.894597e+002, 5.117537e+002
3.899418e+002, 5.103906e+002
3.904239e+002, 5.092248e+002
3.909060e+002, 5.094364e+002
3.913882e+002, 5.100729e+002
3.918703e+002, 5.102534e+002
3.923524e+002, 5.096607e+002
3.928345e+002, 5.088828e+002
3.933166e+002, 5.077303e+002
3.937987e+002, 5.066114e+002
3.942809e+002, 5.063566e+002
3.947630e+002, 5.082343e+002
3.952451e+002, 5.101632e+002
3.957272e+002, 5.112510e+002
3.962093e+002, 5.113205e+002
3.966914e+002, 5.111422e+002
3.971736e+002, 5.104527e+002
3.976557e+002, 5.097720e+002
3.981378e+002, 5.095771e+002
3.986199e+002, 5.109022e+002
3.991020e+002, 5.115851e+002
3.995841e+002, 5.108325e+002
4.000663e+002, 5.089677e+002
