##NAMES=Crandallite
##RRUFFID=R140429
##IDEAL CHEMISTRY=CaAl_3_(PO_4_)(PO_3_OH)(OH)_6_
##LOCALITY=Savannah Pit, Tyrone mine, Grant County, New Mexico, USA
##OWNER=RRUFF
##SOURCE=Ron Gibbs
##DESCRIPTION=Colorless, hexagonal platy crystals
##STATUS=The identification of this mineral has been confirmed by single-crystal X-ray diffraction.
##URL=rruff.info/R140429
8.758203e+001, 1.107356e+003
8.806415e+001, 1.095910e+003
8.854626e+001, 1.093936e+003
8.902838e+001, 1.105462e+003
8.951050e+001, 1.120077e+003
8.999261e+001, 1.134350e+003
9.047473e+001, 1.147990e+003
9.095685e+001, 1.161395e+003
9.143896e+001, 1.174763e+003
9.192108e+001, 1.188173e+003
9.240320e+001, 1.202217e+003
9.288531e+001, 1.203875e+003
9.336743e+001, 1.184075e+003
9.384955e+001, 1.146957e+003
9.433167e+001, 1.109848e+003
9.481378e+001, 1.071569e+003
9.529590e+001, 1.038413e+003
9.577802e+001, 1.009905e+003
9.626013e+001, 9.855533e+002
9.674225e+001, 9.653995e+002
9.722437e+001, 9.487952e+002
9.770648e+001, 9.332147e+002
9.818860e+001, 9.178029e+002
9.867072e+001, 9.032707e+002
9.915283e+001, 8.900267e+002
9.963495e+001, 8.779348e+002
1.001171e+002, 8.664960e+002
1.005992e+002, 8.549880e+002
1.010813e+002, 8.422841e+002
1.015634e+002, 8.316490e+002
1.020455e+002, 8.224919e+002
1.025277e+002, 8.147792e+002
1.030098e+002, 8.086082e+002
1.034919e+002, 8.039454e+002
1.039740e+002, 8.004784e+002
1.044561e+002, 7.974230e+002
1.049382e+002, 7.971064e+002
1.054204e+002, 7.943860e+002
1.059025e+002, 7.874549e+002
1.063846e+002, 7.777551e+002
1.068667e+002, 7.675428e+002
1.073488e+002, 7.579156e+002
1.078309e+002, 7.490625e+002
1.083131e+002, 7.420505e+002
1.087952e+002, 7.374823e+002
1.092773e+002, 7.338182e+002
1.097594e+002, 7.303441e+002
1.102415e+002, 7.270148e+002
1.107236e+002, 7.239791e+002
1.112058e+002, 7.215187e+002
1.116879e+002, 7.194676e+002
1.121700e+002, 7.173047e+002
1.126521e+002, 7.152634e+002
1.131342e+002, 7.129830e+002
1.136163e+002, 7.096002e+002
1.140985e+002, 7.044305e+002
1.145806e+002, 6.995715e+002
1.150627e+002, 6.967437e+002
1.155448e+002, 6.953055e+002
1.160269e+002, 6.937151e+002
1.165090e+002, 6.905729e+002
1.169912e+002, 6.859344e+002
1.174733e+002, 6.824553e+002
1.179554e+002, 6.812936e+002
1.184375e+002, 6.804754e+002
1.189196e+002, 6.791217e+002
1.194017e+002, 6.772818e+002
1.198839e+002, 6.755707e+002
1.203660e+002, 6.748459e+002
1.208481e+002, 6.758669e+002
1.213302e+002, 6.759143e+002
1.218123e+002, 6.747139e+002
1.222944e+002, 6.729388e+002
1.227766e+002, 6.708715e+002
1.232587e+002, 6.686332e+002
1.237408e+002, 6.663074e+002
1.242229e+002, 6.640746e+002
1.247050e+002, 6.618412e+002
1.251871e+002, 6.598259e+002
1.256693e+002, 6.583203e+002
1.261514e+002, 6.569551e+002
1.266335e+002, 6.552237e+002
1.271156e+002, 6.528583e+002
1.275977e+002, 6.501077e+002
1.280798e+002, 6.477433e+002
1.285620e+002, 6.461058e+002
1.290441e+002, 6.442314e+002
1.295262e+002, 6.416981e+002
1.300083e+002, 6.385914e+002
1.304904e+002, 6.352377e+002
1.309725e+002, 6.315530e+002
1.314547e+002, 6.278864e+002
1.319368e+002, 6.248897e+002
1.324189e+002, 6.227382e+002
1.329010e+002, 6.211023e+002
1.333831e+002, 6.197247e+002
1.338652e+002, 6.186325e+002
1.343474e+002, 6.176806e+002
1.348295e+002, 6.168452e+002
1.353116e+002, 6.160986e+002
1.357937e+002, 6.154398e+002
1.362758e+002, 6.149283e+002
1.367579e+002, 6.144596e+002
1.372401e+002, 6.138229e+002
1.377222e+002, 6.132960e+002
1.382043e+002, 6.120589e+002
1.386864e+002, 6.094453e+002
1.391685e+002, 6.061098e+002
1.396507e+002, 6.030247e+002
1.401328e+002, 6.009152e+002
1.406149e+002, 5.997312e+002
1.410970e+002, 5.982119e+002
1.415791e+002, 5.956900e+002
1.420612e+002, 5.934469e+002
1.425434e+002, 5.918132e+002
1.430255e+002, 5.907620e+002
1.435076e+002, 5.901523e+002
1.439897e+002, 5.899398e+002
1.444718e+002, 5.903140e+002
1.449539e+002, 5.899262e+002
1.454361e+002, 5.885194e+002
1.459182e+002, 5.867465e+002
1.464003e+002, 5.848241e+002
1.468824e+002, 5.828360e+002
1.473645e+002, 5.808929e+002
1.478466e+002, 5.790457e+002
1.483288e+002, 5.771585e+002
1.488109e+002, 5.761517e+002
1.492930e+002, 5.769527e+002
1.497751e+002, 5.782246e+002
1.502572e+002, 5.785139e+002
1.507393e+002, 5.774427e+002
1.512215e+002, 5.757394e+002
1.517036e+002, 5.742730e+002
1.521857e+002, 5.730133e+002
1.526678e+002, 5.719263e+002
1.531499e+002, 5.712167e+002
1.536320e+002, 5.706859e+002
1.541142e+002, 5.698007e+002
1.545963e+002, 5.682860e+002
1.550784e+002, 5.665928e+002
1.555605e+002, 5.651749e+002
1.560426e+002, 5.640351e+002
1.565247e+002, 5.630287e+002
1.570069e+002, 5.620353e+002
1.574890e+002, 5.610598e+002
1.579711e+002, 5.602785e+002
1.584532e+002, 5.596959e+002
1.589353e+002, 5.593846e+002
1.594174e+002, 5.594705e+002
1.598996e+002, 5.599619e+002
1.603817e+002, 5.606143e+002
1.608638e+002, 5.612894e+002
1.613459e+002, 5.622054e+002
1.618280e+002, 5.623520e+002
1.623102e+002, 5.608660e+002
1.627923e+002, 5.590774e+002
1.632744e+002, 5.579297e+002
1.637565e+002, 5.576736e+002
1.642386e+002, 5.578055e+002
1.647207e+002, 5.573019e+002
1.652029e+002, 5.553293e+002
1.656850e+002, 5.541037e+002
1.661671e+002, 5.541286e+002
1.666492e+002, 5.547057e+002
1.671313e+002, 5.552067e+002
1.676134e+002, 5.553595e+002
1.680956e+002, 5.553336e+002
1.685777e+002, 5.556256e+002
1.690598e+002, 5.567267e+002
1.695419e+002, 5.575967e+002
1.700240e+002, 5.581169e+002
1.705061e+002, 5.583749e+002
1.709883e+002, 5.584479e+002
1.714704e+002, 5.583490e+002
1.719525e+002, 5.581612e+002
1.724346e+002, 5.582535e+002
1.729167e+002, 5.586876e+002
1.733988e+002, 5.592618e+002
1.738810e+002, 5.599592e+002
1.743631e+002, 5.607582e+002
1.748452e+002, 5.615802e+002
1.753273e+002, 5.623342e+002
1.758094e+002, 5.631242e+002
1.762915e+002, 5.642368e+002
1.767737e+002, 5.659570e+002
1.772558e+002, 5.676630e+002
1.777379e+002, 5.689285e+002
1.782200e+002, 5.697845e+002
1.787021e+002, 5.706530e+002
1.791842e+002, 5.718702e+002
1.796664e+002, 5.732054e+002
1.801485e+002, 5.742021e+002
1.806306e+002, 5.745978e+002
1.811127e+002, 5.748643e+002
1.815948e+002, 5.755483e+002
1.820769e+002, 5.767224e+002
1.825591e+002, 5.778809e+002
1.830412e+002, 5.787980e+002
1.835233e+002, 5.795320e+002
1.840054e+002, 5.801578e+002
1.844875e+002, 5.807914e+002
1.849696e+002, 5.812068e+002
1.854518e+002, 5.810436e+002
1.859339e+002, 5.803879e+002
1.864160e+002, 5.788541e+002
1.868981e+002, 5.756035e+002
1.873802e+002, 5.717405e+002
1.878623e+002, 5.685947e+002
1.883445e+002, 5.669623e+002
1.888266e+002, 5.663237e+002
1.893087e+002, 5.649252e+002
1.897908e+002, 5.621120e+002
1.902729e+002, 5.593988e+002
1.907550e+002, 5.571134e+002
1.912372e+002, 5.551556e+002
1.917193e+002, 5.534213e+002
1.922014e+002, 5.518712e+002
1.926835e+002, 5.504725e+002
1.931656e+002, 5.490115e+002
1.936477e+002, 5.475447e+002
1.941299e+002, 5.459542e+002
1.946120e+002, 5.440692e+002
1.950941e+002, 5.420582e+002
1.955762e+002, 5.401807e+002
1.960583e+002, 5.385984e+002
1.965404e+002, 5.373090e+002
1.970226e+002, 5.363046e+002
1.975047e+002, 5.357826e+002
1.979868e+002, 5.353128e+002
1.984689e+002, 5.347670e+002
1.989510e+002, 5.341771e+002
1.994331e+002, 5.336611e+002
1.999153e+002, 5.333190e+002
2.003974e+002, 5.331386e+002
2.008795e+002, 5.327414e+002
2.013616e+002, 5.318616e+002
2.018437e+002, 5.310630e+002
2.023258e+002, 5.307970e+002
2.028080e+002, 5.308926e+002
2.032901e+002, 5.306774e+002
2.037722e+002, 5.295817e+002
2.042543e+002, 5.276722e+002
2.047364e+002, 5.261418e+002
2.052185e+002, 5.251372e+002
2.057007e+002, 5.243524e+002
2.061828e+002, 5.236595e+002
2.066649e+002, 5.230482e+002
2.071470e+002, 5.224789e+002
2.076291e+002, 5.218864e+002
2.081112e+002, 5.213303e+002
2.085934e+002, 5.209979e+002
2.090755e+002, 5.210877e+002
2.095576e+002, 5.212858e+002
2.100397e+002, 5.213990e+002
2.105218e+002, 5.214332e+002
2.110039e+002, 5.212326e+002
2.114861e+002, 5.205804e+002
2.119682e+002, 5.196196e+002
2.124503e+002, 5.186125e+002
2.129324e+002, 5.173550e+002
2.134145e+002, 5.162458e+002
2.138967e+002, 5.159500e+002
2.143788e+002, 5.166602e+002
2.148609e+002, 5.172581e+002
2.153430e+002, 5.167516e+002
2.158251e+002, 5.158073e+002
2.163072e+002, 5.152665e+002
2.167894e+002, 5.155435e+002
2.172715e+002, 5.162046e+002
2.177536e+002, 5.165246e+002
2.182357e+002, 5.164470e+002
2.187178e+002, 5.161599e+002
2.191999e+002, 5.155793e+002
2.196821e+002, 5.149034e+002
2.201642e+002, 5.143700e+002
2.206463e+002, 5.141028e+002
2.211284e+002, 5.140001e+002
2.216105e+002, 5.138329e+002
2.220926e+002, 5.135829e+002
2.225748e+002, 5.133144e+002
2.230569e+002, 5.130965e+002
2.235390e+002, 5.128677e+002
2.240211e+002, 5.124735e+002
2.245032e+002, 5.117752e+002
2.249853e+002, 5.110497e+002
2.254675e+002, 5.111472e+002
2.259496e+002, 5.128290e+002
2.264317e+002, 5.141372e+002
2.269138e+002, 5.144553e+002
2.273959e+002, 5.143098e+002
2.278780e+002, 5.143161e+002
2.283602e+002, 5.147899e+002
2.288423e+002, 5.154899e+002
2.293244e+002, 5.156143e+002
2.298065e+002, 5.145438e+002
2.302886e+002, 5.137045e+002
2.307707e+002, 5.131578e+002
2.312529e+002, 5.129520e+002
2.317350e+002, 5.131653e+002
2.322171e+002, 5.138375e+002
2.326992e+002, 5.148658e+002
2.331813e+002, 5.159356e+002
2.336634e+002, 5.173953e+002
2.341456e+002, 5.184434e+002
2.346277e+002, 5.188140e+002
2.351098e+002, 5.188231e+002
2.355919e+002, 5.188549e+002
2.360740e+002, 5.190876e+002
2.365561e+002, 5.193865e+002
2.370383e+002, 5.193489e+002
2.375204e+002, 5.186449e+002
2.380025e+002, 5.179788e+002
2.384846e+002, 5.170778e+002
2.389667e+002, 5.163417e+002
2.394488e+002, 5.164020e+002
2.399310e+002, 5.175450e+002
2.404131e+002, 5.192801e+002
2.408952e+002, 5.203488e+002
2.413773e+002, 5.199326e+002
2.418594e+002, 5.199942e+002
2.423415e+002, 5.210406e+002
2.428237e+002, 5.225626e+002
2.433058e+002, 5.238691e+002
2.437879e+002, 5.246910e+002
2.442700e+002, 5.253299e+002
2.447521e+002, 5.265051e+002
2.452342e+002, 5.287133e+002
2.457164e+002, 5.304169e+002
2.461985e+002, 5.310936e+002
2.466806e+002, 5.312182e+002
2.471627e+002, 5.314086e+002
2.476448e+002, 5.318612e+002
2.481269e+002, 5.324545e+002
2.486091e+002, 5.329854e+002
2.490912e+002, 5.334246e+002
2.495733e+002, 5.339088e+002
2.500554e+002, 5.345908e+002
2.505375e+002, 5.353060e+002
2.510196e+002, 5.356916e+002
2.515018e+002, 5.355770e+002
2.519839e+002, 5.354789e+002
2.524660e+002, 5.362743e+002
2.529481e+002, 5.379831e+002
2.534302e+002, 5.397231e+002
2.539123e+002, 5.412719e+002
2.543945e+002, 5.427277e+002
2.548766e+002, 5.442927e+002
2.553587e+002, 5.460573e+002
2.558408e+002, 5.477684e+002
2.563229e+002, 5.490118e+002
2.568051e+002, 5.498580e+002
2.572872e+002, 5.508049e+002
2.577693e+002, 5.520497e+002
2.582514e+002, 5.534637e+002
2.587335e+002, 5.548848e+002
2.592156e+002, 5.563108e+002
2.596978e+002, 5.576268e+002
2.601799e+002, 5.585760e+002
2.606620e+002, 5.592744e+002
2.611441e+002, 5.601110e+002
2.616262e+002, 5.617639e+002
2.621083e+002, 5.634491e+002
2.625905e+002, 5.637253e+002
2.630726e+002, 5.622098e+002
2.635547e+002, 5.603398e+002
2.640368e+002, 5.594004e+002
2.645189e+002, 5.589486e+002
2.650010e+002, 5.580839e+002
2.654832e+002, 5.563466e+002
2.659653e+002, 5.541070e+002
2.664474e+002, 5.519407e+002
2.669295e+002, 5.498994e+002
2.674116e+002, 5.477833e+002
2.678937e+002, 5.452268e+002
2.683759e+002, 5.425706e+002
2.688580e+002, 5.403265e+002
2.693401e+002, 5.388651e+002
2.698222e+002, 5.377127e+002
2.703043e+002, 5.361919e+002
2.707864e+002, 5.342604e+002
2.712686e+002, 5.321526e+002
2.717507e+002, 5.295380e+002
2.722328e+002, 5.269450e+002
2.727149e+002, 5.250491e+002
2.731970e+002, 5.241885e+002
2.736791e+002, 5.237235e+002
2.741613e+002, 5.228163e+002
2.746434e+002, 5.213823e+002
2.751255e+002, 5.198922e+002
2.756076e+002, 5.185231e+002
2.760897e+002, 5.171604e+002
2.765718e+002, 5.156703e+002
2.770540e+002, 5.140002e+002
2.775361e+002, 5.123368e+002
2.780182e+002, 5.109193e+002
2.785003e+002, 5.097932e+002
2.789824e+002, 5.086315e+002
2.794645e+002, 5.072506e+002
2.799467e+002, 5.058766e+002
2.804288e+002, 5.046570e+002
2.809109e+002, 5.036162e+002
2.813930e+002, 5.027166e+002
2.818751e+002, 5.019399e+002
2.823572e+002, 5.012941e+002
2.828394e+002, 5.007073e+002
2.833215e+002, 5.004032e+002
2.838036e+002, 4.999567e+002
2.842857e+002, 4.989518e+002
2.847678e+002, 4.974651e+002
2.852499e+002, 4.960724e+002
2.857321e+002, 4.953520e+002
2.862142e+002, 4.953206e+002
2.866963e+002, 4.952697e+002
2.871784e+002, 4.953050e+002
2.876605e+002, 4.951461e+002
2.881426e+002, 4.946698e+002
2.886248e+002, 4.938872e+002
2.891069e+002, 4.928569e+002
2.895890e+002, 4.914672e+002
2.900711e+002, 4.897685e+002
2.905532e+002, 4.885459e+002
2.910353e+002, 4.882281e+002
2.915175e+002, 4.878654e+002
2.919996e+002, 4.869265e+002
2.924817e+002, 4.856830e+002
2.929638e+002, 4.846693e+002
2.934459e+002, 4.842391e+002
2.939280e+002, 4.842840e+002
2.944102e+002, 4.843748e+002
2.948923e+002, 4.847740e+002
2.953744e+002, 4.847856e+002
2.958565e+002, 4.839335e+002
2.963386e+002, 4.827206e+002
2.968207e+002, 4.818057e+002
2.973029e+002, 4.815349e+002
2.977850e+002, 4.816760e+002
2.982671e+002, 4.816581e+002
2.987492e+002, 4.814179e+002
2.992313e+002, 4.811534e+002
2.997134e+002, 4.809010e+002
3.001956e+002, 4.806601e+002
3.006777e+002, 4.804235e+002
3.011598e+002, 4.801873e+002
3.016419e+002, 4.799751e+002
3.021240e+002, 4.797996e+002
3.026061e+002, 4.795957e+002
3.030883e+002, 4.796152e+002
3.035704e+002, 4.802935e+002
3.040525e+002, 4.809179e+002
3.045346e+002, 4.808523e+002
3.050167e+002, 4.800332e+002
3.054988e+002, 4.790965e+002
3.059810e+002, 4.789496e+002
3.064631e+002, 4.798747e+002
3.069452e+002, 4.802601e+002
3.074273e+002, 4.793350e+002
3.079094e+002, 4.783703e+002
3.083915e+002, 4.778972e+002
3.088737e+002, 4.779410e+002
3.093558e+002, 4.782851e+002
3.098379e+002, 4.788129e+002
3.103200e+002, 4.795421e+002
3.108021e+002, 4.801012e+002
3.112842e+002, 4.804695e+002
3.117664e+002, 4.806623e+002
3.122485e+002, 4.806888e+002
3.127306e+002, 4.805462e+002
3.132127e+002, 4.801861e+002
3.136948e+002, 4.794668e+002
3.141769e+002, 4.785175e+002
3.146591e+002, 4.781956e+002
3.151412e+002, 4.792681e+002
3.156233e+002, 4.799016e+002
3.161054e+002, 4.791750e+002
3.165875e+002, 4.778590e+002
3.170696e+002, 4.770659e+002
3.175518e+002, 4.774110e+002
3.180339e+002, 4.783286e+002
3.185160e+002, 4.782761e+002
3.189981e+002, 4.765367e+002
3.194802e+002, 4.753140e+002
3.199623e+002, 4.751075e+002
3.204445e+002, 4.755253e+002
3.209266e+002, 4.764348e+002
3.214087e+002, 4.777845e+002
3.218908e+002, 4.791219e+002
3.223729e+002, 4.796869e+002
3.228550e+002, 4.792423e+002
3.233372e+002, 4.788675e+002
3.238193e+002, 4.789428e+002
3.243014e+002, 4.789467e+002
3.247835e+002, 4.784048e+002
3.252656e+002, 4.773506e+002
3.257477e+002, 4.763687e+002
3.262299e+002, 4.761846e+002
3.267120e+002, 4.769037e+002
3.271941e+002, 4.772496e+002
3.276762e+002, 4.767271e+002
3.281583e+002, 4.762380e+002
3.286404e+002, 4.761989e+002
3.291226e+002, 4.765204e+002
3.296047e+002, 4.768955e+002
3.300868e+002, 4.771318e+002
3.305689e+002, 4.772370e+002
3.310510e+002, 4.772039e+002
3.315331e+002, 4.765894e+002
3.320153e+002, 4.765521e+002
3.324974e+002, 4.780775e+002
3.329795e+002, 4.802355e+002
3.334616e+002, 4.816647e+002
3.339437e+002, 4.816632e+002
3.344258e+002, 4.807042e+002
3.349080e+002, 4.797872e+002
3.353901e+002, 4.789021e+002
3.358722e+002, 4.781099e+002
3.363543e+002, 4.774365e+002
3.368365e+002, 4.768616e+002
3.373186e+002, 4.764168e+002
3.378007e+002, 4.761222e+002
3.382828e+002, 4.758256e+002
3.387649e+002, 4.751888e+002
3.392470e+002, 4.740986e+002
3.397292e+002, 4.735345e+002
3.402113e+002, 4.740331e+002
3.406934e+002, 4.748746e+002
3.411755e+002, 4.757980e+002
3.416576e+002, 4.767157e+002
3.421397e+002, 4.773276e+002
3.426219e+002, 4.771100e+002
3.431040e+002, 4.761779e+002
3.435861e+002, 4.758772e+002
3.440682e+002, 4.767163e+002
3.445503e+002, 4.776134e+002
3.450324e+002, 4.779492e+002
3.455146e+002, 4.778421e+002
3.459967e+002, 4.775879e+002
3.464788e+002, 4.772586e+002
3.469609e+002, 4.769124e+002
3.474430e+002, 4.767296e+002
3.479251e+002, 4.767935e+002
3.484073e+002, 4.767935e+002
3.488894e+002, 4.764167e+002
3.493715e+002, 4.759448e+002
3.498536e+002, 4.757458e+002
3.503357e+002, 4.760006e+002
3.508178e+002, 4.764079e+002
3.513000e+002, 4.765657e+002
3.517821e+002, 4.764586e+002
3.522642e+002, 4.765351e+002
3.527463e+002, 4.773099e+002
3.532284e+002, 4.780559e+002
3.537105e+002, 4.779022e+002
3.541927e+002, 4.767142e+002
3.546748e+002, 4.755371e+002
3.551569e+002, 4.750277e+002
3.556390e+002, 4.751177e+002
3.561211e+002, 4.756036e+002
3.566032e+002, 4.767623e+002
3.570854e+002, 4.777661e+002
3.575675e+002, 4.777214e+002
3.580496e+002, 4.768190e+002
3.585317e+002, 4.759120e+002
3.590138e+002, 4.752462e+002
3.594959e+002, 4.748013e+002
3.599781e+002, 4.746128e+002
3.604602e+002, 4.747252e+002
3.609423e+002, 4.748047e+002
3.614244e+002, 4.745348e+002
3.619065e+002, 4.740638e+002
3.623886e+002, 4.737646e+002
3.628708e+002, 4.737386e+002
3.633529e+002, 4.738425e+002
3.638350e+002, 4.740300e+002
3.643171e+002, 4.742770e+002
3.647992e+002, 4.744323e+002
3.652813e+002, 4.744376e+002
3.657635e+002, 4.742920e+002
3.662456e+002, 4.739741e+002
3.667277e+002, 4.733962e+002
3.672098e+002, 4.729229e+002
3.676919e+002, 4.729170e+002
3.681740e+002, 4.730786e+002
3.686562e+002, 4.727718e+002
3.691383e+002, 4.717834e+002
3.696204e+002, 4.705817e+002
3.701025e+002, 4.696691e+002
3.705846e+002, 4.690421e+002
3.710667e+002, 4.687541e+002
3.715489e+002, 4.692649e+002
3.720310e+002, 4.698250e+002
3.725131e+002, 4.695771e+002
3.729952e+002, 4.685522e+002
3.734773e+002, 4.676724e+002
3.739594e+002, 4.676895e+002
3.744416e+002, 4.685009e+002
3.749237e+002, 4.688639e+002
3.754058e+002, 4.685041e+002
3.758879e+002, 4.680490e+002
3.763700e+002, 4.677813e+002
3.768521e+002, 4.675995e+002
3.773343e+002, 4.672255e+002
3.778164e+002, 4.665029e+002
3.782985e+002, 4.656630e+002
3.787806e+002, 4.652559e+002
3.792627e+002, 4.654962e+002
3.797448e+002, 4.658144e+002
3.802270e+002, 4.665884e+002
3.807091e+002, 4.671904e+002
3.811912e+002, 4.667915e+002
3.816733e+002, 4.653326e+002
3.821554e+002, 4.637499e+002
3.826375e+002, 4.631557e+002
3.831197e+002, 4.638964e+002
3.836018e+002, 4.638444e+002
3.840839e+002, 4.622450e+002
3.845660e+002, 4.607329e+002
3.850481e+002, 4.600945e+002
3.855302e+002, 4.601631e+002
3.860124e+002, 4.603678e+002
3.864945e+002, 4.603242e+002
3.869766e+002, 4.601329e+002
3.874587e+002, 4.603359e+002
3.879408e+002, 4.614613e+002
3.884229e+002, 4.623643e+002
3.889051e+002, 4.626952e+002
3.893872e+002, 4.628625e+002
3.898693e+002, 4.633987e+002
3.903514e+002, 4.644462e+002
3.908335e+002, 4.655613e+002
3.913156e+002, 4.660238e+002
3.917978e+002, 4.656590e+002
3.922799e+002, 4.651041e+002
3.927620e+002, 4.643193e+002
3.932441e+002, 4.634012e+002
3.937262e+002, 4.621094e+002
3.942083e+002, 4.606555e+002
3.946905e+002, 4.596865e+002
3.951726e+002, 4.598380e+002
3.956547e+002, 4.609826e+002
3.961368e+002, 4.618463e+002
3.966189e+002, 4.626468e+002
3.971010e+002, 4.627721e+002
3.975832e+002, 4.613894e+002
3.980653e+002, 4.595255e+002
3.985474e+002, 4.586404e+002
3.990295e+002, 4.594243e+002
3.995116e+002, 4.608335e+002
3.999937e+002, 4.610471e+002
4.004759e+002, 4.597687e+002
4.009580e+002, 4.588430e+002
4.014401e+002, 4.590573e+002
4.019222e+002, 4.595324e+002
4.024043e+002, 4.596998e+002
