##NAMES=Hercynite
##RRUFFID=R170038
##IDEAL CHEMISTRY=Fe^2+^Al_2_O_4_
##LOCALITY=LePrese, Veltlin, Switzerland
##OWNER=UAMM
##SOURCE=Rock Currier
##DESCRIPTION=Dark-green grains
##STATUS=The identification of this mineral is confirmed by single-crystal X-ray diffraction and chemical analysis.
##URL=rruff.info/R170038
##MEASURED CHEMISTRY=(Fe_0.65_Mg_0.35_Mn_0.01_)(Al_1.96_Fe_0.04_)O_4_   (Probed together with R130646).
8.955957e+001, 1.534284e+003
9.004169e+001, 1.530360e+003
9.052380e+001, 1.539145e+003
9.100592e+001, 1.556669e+003
9.148804e+001, 1.572437e+003
9.197015e+001, 1.585739e+003
9.245227e+001, 1.597906e+003
9.293439e+001, 1.608544e+003
9.341650e+001, 1.589733e+003
9.389862e+001, 1.553328e+003
9.438074e+001, 1.519094e+003
9.486285e+001, 1.487375e+003
9.534497e+001, 1.459482e+003
9.582709e+001, 1.436130e+003
9.630920e+001, 1.411701e+003
9.679132e+001, 1.388250e+003
9.727344e+001, 1.367382e+003
9.775555e+001, 1.349187e+003
9.823766e+001, 1.333269e+003
9.871978e+001, 1.319862e+003
9.920190e+001, 1.307067e+003
9.968401e+001, 1.294683e+003
1.001661e+002, 1.282667e+003
1.006482e+002, 1.271182e+003
1.011304e+002, 1.260344e+003
1.016125e+002, 1.249378e+003
1.020946e+002, 1.236321e+003
1.025767e+002, 1.219959e+003
1.030588e+002, 1.204239e+003
1.035409e+002, 1.189131e+003
1.040231e+002, 1.174978e+003
1.045052e+002, 1.164296e+003
1.049873e+002, 1.159806e+003
1.054694e+002, 1.158621e+003
1.059515e+002, 1.155629e+003
1.064336e+002, 1.150250e+003
1.069158e+002, 1.143312e+003
1.073979e+002, 1.135664e+003
1.078800e+002, 1.127358e+003
1.083621e+002, 1.118010e+003
1.088442e+002, 1.106021e+003
1.093263e+002, 1.093384e+003
1.098085e+002, 1.082328e+003
1.102906e+002, 1.074184e+003
1.107727e+002, 1.068269e+003
1.112548e+002, 1.061822e+003
1.117369e+002, 1.053037e+003
1.122190e+002, 1.046017e+003
1.127012e+002, 1.043177e+003
1.131833e+002, 1.042774e+003
1.136654e+002, 1.041625e+003
1.141475e+002, 1.036865e+003
1.146296e+002, 1.027849e+003
1.151117e+002, 1.021265e+003
1.155939e+002, 1.019584e+003
1.160760e+002, 1.017808e+003
1.165581e+002, 1.013654e+003
1.170402e+002, 1.007055e+003
1.175223e+002, 9.994113e+002
1.180044e+002, 9.922067e+002
1.184866e+002, 9.853270e+002
1.189687e+002, 9.795526e+002
1.194508e+002, 9.757274e+002
1.199329e+002, 9.725889e+002
1.204150e+002, 9.688138e+002
1.208971e+002, 9.639933e+002
1.213793e+002, 9.588887e+002
1.218614e+002, 9.551017e+002
1.223435e+002, 9.528993e+002
1.228256e+002, 9.496787e+002
1.233077e+002, 9.441725e+002
1.237898e+002, 9.368878e+002
1.242720e+002, 9.290628e+002
1.247541e+002, 9.199797e+002
1.252362e+002, 9.118278e+002
1.257183e+002, 9.071169e+002
1.262004e+002, 9.063431e+002
1.266825e+002, 9.066826e+002
1.271647e+002, 9.061917e+002
1.276468e+002, 9.049509e+002
1.281289e+002, 9.022030e+002
1.286110e+002, 8.963758e+002
1.290931e+002, 8.895901e+002
1.295752e+002, 8.831217e+002
1.300574e+002, 8.773185e+002
1.305395e+002, 8.721188e+002
1.310216e+002, 8.676046e+002
1.315037e+002, 8.646766e+002
1.319858e+002, 8.608084e+002
1.324679e+002, 8.548627e+002
1.329501e+002, 8.481420e+002
1.334322e+002, 8.419691e+002
1.339143e+002, 8.370428e+002
1.343964e+002, 8.332635e+002
1.348785e+002, 8.300692e+002
1.353606e+002, 8.296903e+002
1.358427e+002, 8.275628e+002
1.363249e+002, 8.209669e+002
1.368070e+002, 8.119746e+002
1.372891e+002, 8.047318e+002
1.377712e+002, 8.026116e+002
1.382533e+002, 8.056458e+002
1.387354e+002, 8.052358e+002
1.392176e+002, 8.006600e+002
1.396997e+002, 7.940767e+002
1.401818e+002, 7.851891e+002
1.406639e+002, 7.745792e+002
1.411460e+002, 7.650822e+002
1.416281e+002, 7.595826e+002
1.421103e+002, 7.582512e+002
1.425924e+002, 7.563868e+002
1.430745e+002, 7.540535e+002
1.435566e+002, 7.509484e+002
1.440387e+002, 7.462435e+002
1.445208e+002, 7.394554e+002
1.450030e+002, 7.328380e+002
1.454851e+002, 7.292294e+002
1.459672e+002, 7.277951e+002
1.464493e+002, 7.260269e+002
1.469314e+002, 7.228180e+002
1.474135e+002, 7.185123e+002
1.478957e+002, 7.140909e+002
1.483778e+002, 7.094263e+002
1.488599e+002, 7.049926e+002
1.493420e+002, 7.015529e+002
1.498241e+002, 6.987842e+002
1.503062e+002, 6.953978e+002
1.507884e+002, 6.893442e+002
1.512705e+002, 6.802960e+002
1.517526e+002, 6.743439e+002
1.522347e+002, 6.767541e+002
1.527168e+002, 6.788976e+002
1.531989e+002, 6.764518e+002
1.536811e+002, 6.694344e+002
1.541632e+002, 6.611249e+002
1.546453e+002, 6.554901e+002
1.551274e+002, 6.533405e+002
1.556095e+002, 6.519811e+002
1.560916e+002, 6.527129e+002
1.565738e+002, 6.531683e+002
1.570559e+002, 6.515451e+002
1.575380e+002, 6.475104e+002
1.580201e+002, 6.423013e+002
1.585022e+002, 6.379760e+002
1.589843e+002, 6.344531e+002
1.594665e+002, 6.322208e+002
1.599486e+002, 6.325467e+002
1.604307e+002, 6.335365e+002
1.609128e+002, 6.331874e+002
1.613949e+002, 6.307286e+002
1.618770e+002, 6.270673e+002
1.623592e+002, 6.244053e+002
1.628413e+002, 6.231020e+002
1.633234e+002, 6.221611e+002
1.638055e+002, 6.221649e+002
1.642876e+002, 6.223814e+002
1.647697e+002, 6.213353e+002
1.652519e+002, 6.181145e+002
1.657340e+002, 6.136669e+002
1.662161e+002, 6.103459e+002
1.666982e+002, 6.082657e+002
1.671803e+002, 6.068731e+002
1.676624e+002, 6.060599e+002
1.681445e+002, 6.057752e+002
1.686267e+002, 6.058551e+002
1.691088e+002, 6.068120e+002
1.695909e+002, 6.076573e+002
1.700730e+002, 6.065776e+002
1.705551e+002, 6.023880e+002
1.710372e+002, 5.982072e+002
1.715194e+002, 5.975003e+002
1.720015e+002, 6.006806e+002
1.724836e+002, 6.030646e+002
1.729657e+002, 6.016345e+002
1.734478e+002, 5.986382e+002
1.739299e+002, 5.958269e+002
1.744121e+002, 5.934494e+002
1.748942e+002, 5.918605e+002
1.753763e+002, 5.920853e+002
1.758584e+002, 5.952800e+002
1.763405e+002, 5.973116e+002
1.768226e+002, 5.958300e+002
1.773048e+002, 5.930524e+002
1.777869e+002, 5.912504e+002
1.782690e+002, 5.915573e+002
1.787511e+002, 5.931819e+002
1.792332e+002, 5.936169e+002
1.797153e+002, 5.912556e+002
1.801975e+002, 5.900823e+002
1.806796e+002, 5.921698e+002
1.811617e+002, 5.954786e+002
1.816438e+002, 5.973536e+002
1.821259e+002, 5.961251e+002
1.826080e+002, 5.924262e+002
1.830902e+002, 5.901677e+002
1.835723e+002, 5.912814e+002
1.840544e+002, 5.919690e+002
1.845365e+002, 5.913268e+002
1.850186e+002, 5.898561e+002
1.855007e+002, 5.886081e+002
1.859829e+002, 5.883632e+002
1.864650e+002, 5.889940e+002
1.869471e+002, 5.878959e+002
1.874292e+002, 5.824999e+002
1.879113e+002, 5.782658e+002
1.883934e+002, 5.779041e+002
1.888756e+002, 5.803032e+002
1.893577e+002, 5.821890e+002
1.898398e+002, 5.809825e+002
1.903219e+002, 5.768383e+002
1.908040e+002, 5.748507e+002
1.912861e+002, 5.772107e+002
1.917683e+002, 5.794202e+002
1.922504e+002, 5.787198e+002
1.927325e+002, 5.754098e+002
1.932146e+002, 5.718553e+002
1.936967e+002, 5.697450e+002
1.941788e+002, 5.690768e+002
1.946610e+002, 5.684126e+002
1.951431e+002, 5.677687e+002
1.956252e+002, 5.671167e+002
1.961073e+002, 5.667151e+002
1.965894e+002, 5.665826e+002
1.970715e+002, 5.657316e+002
1.975536e+002, 5.628105e+002
1.980358e+002, 5.585435e+002
1.985179e+002, 5.550922e+002
1.990000e+002, 5.539744e+002
1.994821e+002, 5.533121e+002
1.999642e+002, 5.500831e+002
2.004464e+002, 5.434361e+002
2.009285e+002, 5.377307e+002
2.014106e+002, 5.378062e+002
2.018927e+002, 5.406315e+002
2.023748e+002, 5.415616e+002
2.028569e+002, 5.380917e+002
2.033391e+002, 5.320157e+002
2.038212e+002, 5.267936e+002
2.043033e+002, 5.222762e+002
2.047854e+002, 5.190204e+002
2.052675e+002, 5.183846e+002
2.057496e+002, 5.188546e+002
2.062318e+002, 5.180784e+002
2.067139e+002, 5.144542e+002
2.071960e+002, 5.088534e+002
2.076781e+002, 5.043734e+002
2.081602e+002, 5.019074e+002
2.086423e+002, 4.992052e+002
2.091245e+002, 4.947792e+002
2.096066e+002, 4.897221e+002
2.100887e+002, 4.857563e+002
2.105708e+002, 4.842148e+002
2.110529e+002, 4.846100e+002
2.115350e+002, 4.840093e+002
2.120172e+002, 4.823798e+002
2.124993e+002, 4.795912e+002
2.129814e+002, 4.745676e+002
2.134635e+002, 4.685213e+002
2.139456e+002, 4.634239e+002
2.144277e+002, 4.606700e+002
2.149099e+002, 4.600267e+002
2.153920e+002, 4.587017e+002
2.158741e+002, 4.553647e+002
2.163562e+002, 4.526397e+002
2.168383e+002, 4.518719e+002
2.173204e+002, 4.520536e+002
2.178026e+002, 4.511992e+002
2.182847e+002, 4.477817e+002
2.187668e+002, 4.420016e+002
2.192489e+002, 4.381999e+002
2.197310e+002, 4.376662e+002
2.202131e+002, 4.376053e+002
2.206953e+002, 4.380000e+002
2.211774e+002, 4.383251e+002
2.216595e+002, 4.375677e+002
2.221416e+002, 4.348907e+002
2.226237e+002, 4.304349e+002
2.231058e+002, 4.271735e+002
2.235880e+002, 4.256997e+002
2.240701e+002, 4.245327e+002
2.245522e+002, 4.236464e+002
2.250343e+002, 4.227257e+002
2.255164e+002, 4.209466e+002
2.259985e+002, 4.175220e+002
2.264807e+002, 4.127506e+002
2.269628e+002, 4.097866e+002
2.274449e+002, 4.095774e+002
2.279270e+002, 4.098727e+002
2.284091e+002, 4.100600e+002
2.288912e+002, 4.100272e+002
2.293733e+002, 4.095109e+002
2.298555e+002, 4.082432e+002
2.303376e+002, 4.063639e+002
2.308197e+002, 4.047080e+002
2.313018e+002, 4.028275e+002
2.317839e+002, 4.015523e+002
2.322660e+002, 4.019601e+002
2.327482e+002, 4.036343e+002
2.332303e+002, 4.044345e+002
2.337124e+002, 4.027460e+002
2.341945e+002, 3.994330e+002
2.346766e+002, 3.974959e+002
2.351587e+002, 3.976291e+002
2.356409e+002, 3.982727e+002
2.361230e+002, 3.987367e+002
2.366051e+002, 3.989764e+002
2.370872e+002, 3.985310e+002
2.375693e+002, 3.966946e+002
2.380514e+002, 3.942741e+002
2.385336e+002, 3.930469e+002
2.390157e+002, 3.938073e+002
2.394978e+002, 3.945103e+002
2.399799e+002, 3.932469e+002
2.404620e+002, 3.901301e+002
2.409441e+002, 3.873113e+002
2.414263e+002, 3.855602e+002
2.419084e+002, 3.847460e+002
2.423905e+002, 3.846961e+002
2.428726e+002, 3.855880e+002
2.433547e+002, 3.867021e+002
2.438368e+002, 3.875424e+002
2.443190e+002, 3.881089e+002
2.448011e+002, 3.882653e+002
2.452832e+002, 3.879056e+002
2.457653e+002, 3.871017e+002
2.462474e+002, 3.857324e+002
2.467295e+002, 3.836877e+002
2.472117e+002, 3.817865e+002
2.476938e+002, 3.810004e+002
2.481759e+002, 3.814102e+002
2.486580e+002, 3.815919e+002
2.491401e+002, 3.811234e+002
2.496222e+002, 3.803116e+002
2.501044e+002, 3.791238e+002
2.505865e+002, 3.775703e+002
2.510686e+002, 3.763532e+002
2.515507e+002, 3.766642e+002
2.520328e+002, 3.787963e+002
2.525149e+002, 3.796127e+002
2.529971e+002, 3.771584e+002
2.534792e+002, 3.742272e+002
2.539613e+002, 3.722283e+002
2.544434e+002, 3.713128e+002
2.549255e+002, 3.710306e+002
2.554076e+002, 3.711858e+002
2.558898e+002, 3.719171e+002
2.563719e+002, 3.720245e+002
2.568540e+002, 3.707722e+002
2.573361e+002, 3.693299e+002
2.578182e+002, 3.680067e+002
2.583003e+002, 3.669202e+002
2.587824e+002, 3.662452e+002
2.592646e+002, 3.663934e+002
2.597467e+002, 3.675764e+002
2.602288e+002, 3.680665e+002
2.607109e+002, 3.668035e+002
2.611930e+002, 3.657065e+002
2.616751e+002, 3.656778e+002
2.621573e+002, 3.665379e+002
2.626394e+002, 3.675162e+002
2.631215e+002, 3.680284e+002
2.636036e+002, 3.680872e+002
2.640857e+002, 3.675177e+002
2.645678e+002, 3.658799e+002
2.650500e+002, 3.639697e+002
2.655321e+002, 3.614496e+002
2.660142e+002, 3.588111e+002
2.664963e+002, 3.571234e+002
2.669784e+002, 3.574960e+002
2.674605e+002, 3.599211e+002
2.679427e+002, 3.610845e+002
2.684248e+002, 3.598274e+002
2.689069e+002, 3.583470e+002
2.693890e+002, 3.570215e+002
2.698711e+002, 3.558726e+002
2.703532e+002, 3.548170e+002
2.708354e+002, 3.537782e+002
2.713175e+002, 3.527711e+002
2.717996e+002, 3.519573e+002
2.722817e+002, 3.515550e+002
2.727638e+002, 3.511275e+002
2.732459e+002, 3.505597e+002
2.737281e+002, 3.499210e+002
2.742102e+002, 3.493866e+002
2.746923e+002, 3.490899e+002
2.751744e+002, 3.488979e+002
2.756565e+002, 3.481528e+002
2.761386e+002, 3.454805e+002
2.766208e+002, 3.437693e+002
2.771029e+002, 3.437944e+002
2.775850e+002, 3.448215e+002
2.780671e+002, 3.461430e+002
2.785492e+002, 3.474470e+002
2.790313e+002, 3.484126e+002
2.795135e+002, 3.480346e+002
2.799956e+002, 3.439962e+002
2.804777e+002, 3.414079e+002
2.809598e+002, 3.413831e+002
2.814419e+002, 3.425278e+002
2.819240e+002, 3.434594e+002
2.824062e+002, 3.436496e+002
2.828883e+002, 3.433670e+002
2.833704e+002, 3.431693e+002
2.838525e+002, 3.435172e+002
2.843346e+002, 3.432395e+002
2.848167e+002, 3.413651e+002
2.852989e+002, 3.394244e+002
2.857810e+002, 3.389347e+002
2.862631e+002, 3.402350e+002
2.867452e+002, 3.423457e+002
2.872273e+002, 3.438945e+002
2.877094e+002, 3.448975e+002
2.881916e+002, 3.450946e+002
2.886737e+002, 3.442485e+002
2.891558e+002, 3.428394e+002
2.896379e+002, 3.406851e+002
2.901200e+002, 3.380194e+002
2.906021e+002, 3.360329e+002
2.910843e+002, 3.363638e+002
2.915664e+002, 3.401205e+002
2.920485e+002, 3.414549e+002
2.925306e+002, 3.382107e+002
2.930127e+002, 3.346692e+002
2.934948e+002, 3.334744e+002
2.939770e+002, 3.345650e+002
2.944591e+002, 3.363319e+002
2.949412e+002, 3.375279e+002
2.954233e+002, 3.381787e+002
2.959054e+002, 3.374372e+002
2.963875e+002, 3.336411e+002
2.968697e+002, 3.303316e+002
2.973518e+002, 3.292386e+002
2.978339e+002, 3.300020e+002
2.983160e+002, 3.314207e+002
2.987981e+002, 3.327940e+002
2.992802e+002, 3.340695e+002
2.997624e+002, 3.346241e+002
3.002445e+002, 3.336824e+002
3.007266e+002, 3.330104e+002
3.012087e+002, 3.335125e+002
3.016908e+002, 3.346231e+002
3.021729e+002, 3.352757e+002
3.026551e+002, 3.349007e+002
3.031372e+002, 3.337115e+002
3.036193e+002, 3.324149e+002
3.041014e+002, 3.304338e+002
3.045835e+002, 3.290607e+002
3.050656e+002, 3.288450e+002
3.055477e+002, 3.292302e+002
3.060298e+002, 3.295097e+002
3.065120e+002, 3.294166e+002
3.069941e+002, 3.291025e+002
3.074762e+002, 3.288782e+002
3.079583e+002, 3.290019e+002
3.084404e+002, 3.287411e+002
3.089225e+002, 3.276385e+002
3.094047e+002, 3.263569e+002
3.098868e+002, 3.255821e+002
3.103689e+002, 3.254681e+002
3.108510e+002, 3.256654e+002
3.113331e+002, 3.258160e+002
3.118152e+002, 3.261649e+002
3.122974e+002, 3.254913e+002
3.127795e+002, 3.224934e+002
3.132616e+002, 3.194771e+002
3.137437e+002, 3.183934e+002
3.142258e+002, 3.192194e+002
3.147079e+002, 3.201375e+002
3.151901e+002, 3.192852e+002
3.156722e+002, 3.163391e+002
3.161543e+002, 3.151604e+002
3.166364e+002, 3.172895e+002
3.171185e+002, 3.194593e+002
3.176006e+002, 3.200009e+002
3.180828e+002, 3.191630e+002
3.185649e+002, 3.180291e+002
3.190470e+002, 3.172966e+002
3.195291e+002, 3.169341e+002
3.200112e+002, 3.166668e+002
3.204933e+002, 3.168620e+002
3.209755e+002, 3.167275e+002
3.214576e+002, 3.154318e+002
3.219397e+002, 3.137336e+002
3.224218e+002, 3.131453e+002
3.229039e+002, 3.144935e+002
3.233860e+002, 3.169669e+002
3.238682e+002, 3.181378e+002
3.243503e+002, 3.164582e+002
3.248324e+002, 3.154143e+002
3.253145e+002, 3.160404e+002
3.257966e+002, 3.170908e+002
3.262787e+002, 3.168740e+002
3.267609e+002, 3.149069e+002
3.272430e+002, 3.125493e+002
3.277251e+002, 3.120489e+002
3.282072e+002, 3.149695e+002
3.286893e+002, 3.165060e+002
3.291714e+002, 3.155328e+002
3.296536e+002, 3.140250e+002
3.301357e+002, 3.137932e+002
3.306178e+002, 3.148680e+002
3.310999e+002, 3.155322e+002
3.315820e+002, 3.137265e+002
3.320641e+002, 3.086253e+002
3.325463e+002, 3.060401e+002
3.330284e+002, 3.074315e+002
3.335105e+002, 3.094114e+002
3.339926e+002, 3.109194e+002
3.344747e+002, 3.116824e+002
3.349568e+002, 3.113900e+002
3.354390e+002, 3.096764e+002
3.359211e+002, 3.066992e+002
3.364032e+002, 3.048215e+002
3.368853e+002, 3.044898e+002
3.373674e+002, 3.046793e+002
3.378495e+002, 3.061056e+002
3.383317e+002, 3.077148e+002
3.388138e+002, 3.076648e+002
3.392959e+002, 3.050052e+002
3.397780e+002, 3.009410e+002
3.402601e+002, 2.988893e+002
3.407422e+002, 3.009816e+002
3.412244e+002, 3.023602e+002
3.417065e+002, 3.023922e+002
3.421886e+002, 3.019209e+002
3.426707e+002, 3.018016e+002
3.431528e+002, 3.022242e+002
3.436349e+002, 3.026427e+002
3.441171e+002, 3.021404e+002
3.445992e+002, 2.998958e+002
3.450813e+002, 2.988865e+002
3.455634e+002, 3.004372e+002
3.460455e+002, 3.018736e+002
3.465276e+002, 3.014281e+002
3.470098e+002, 2.992822e+002
3.474919e+002, 2.968556e+002
3.479740e+002, 2.953632e+002
3.484561e+002, 2.948018e+002
3.489382e+002, 2.951592e+002
3.494203e+002, 2.977672e+002
3.499025e+002, 2.999478e+002
3.503846e+002, 3.008119e+002
3.508667e+002, 3.007448e+002
3.513488e+002, 3.005641e+002
3.518309e+002, 3.008056e+002
3.523130e+002, 3.011590e+002
3.527952e+002, 3.002227e+002
3.532773e+002, 2.959268e+002
3.537594e+002, 2.935075e+002
3.542415e+002, 2.949124e+002
3.547236e+002, 2.977903e+002
3.552057e+002, 2.999595e+002
3.556879e+002, 3.006766e+002
3.561700e+002, 3.004041e+002
3.566521e+002, 2.998552e+002
3.571342e+002, 2.990564e+002
3.576163e+002, 2.978690e+002
3.580984e+002, 2.953029e+002
3.585806e+002, 2.931273e+002
3.590627e+002, 2.925955e+002
3.595448e+002, 2.936176e+002
3.600269e+002, 2.950849e+002
3.605090e+002, 2.961050e+002
3.609911e+002, 2.966779e+002
3.614733e+002, 2.967161e+002
3.619554e+002, 2.960520e+002
3.624375e+002, 2.949770e+002
3.629196e+002, 2.926972e+002
3.634017e+002, 2.901734e+002
3.638839e+002, 2.894004e+002
3.643660e+002, 2.921007e+002
3.648481e+002, 2.967416e+002
3.653302e+002, 2.985009e+002
3.658123e+002, 2.958635e+002
3.662944e+002, 2.936227e+002
3.667766e+002, 2.938912e+002
3.672587e+002, 2.949984e+002
3.677408e+002, 2.953040e+002
3.682229e+002, 2.942891e+002
3.687050e+002, 2.927676e+002
3.691871e+002, 2.917833e+002
3.696692e+002, 2.914086e+002
3.701513e+002, 2.908257e+002
3.706335e+002, 2.896607e+002
3.711156e+002, 2.883936e+002
3.715977e+002, 2.872208e+002
3.720798e+002, 2.861948e+002
3.725619e+002, 2.855521e+002
3.730440e+002, 2.854257e+002
3.735262e+002, 2.858124e+002
3.740083e+002, 2.868396e+002
3.744904e+002, 2.889130e+002
3.749725e+002, 2.908290e+002
3.754546e+002, 2.919255e+002
3.759367e+002, 2.922849e+002
3.764189e+002, 2.919177e+002
3.769010e+002, 2.903260e+002
3.773831e+002, 2.883751e+002
3.778652e+002, 2.871613e+002
3.783473e+002, 2.866979e+002
3.788294e+002, 2.868177e+002
3.793116e+002, 2.876603e+002
3.797937e+002, 2.889738e+002
3.802758e+002, 2.904875e+002
3.807579e+002, 2.925209e+002
3.812400e+002, 2.938564e+002
3.817221e+002, 2.931439e+002
3.822043e+002, 2.909791e+002
3.826864e+002, 2.894146e+002
3.831685e+002, 2.889472e+002
3.836506e+002, 2.893417e+002
3.841327e+002, 2.907790e+002
3.846148e+002, 2.932419e+002
3.850970e+002, 2.948968e+002
3.855791e+002, 2.943168e+002
3.860612e+002, 2.931293e+002
3.865433e+002, 2.934836e+002
3.870254e+002, 2.955964e+002
3.875075e+002, 2.979553e+002
3.879897e+002, 2.995080e+002
3.884718e+002, 3.002310e+002
3.889539e+002, 3.006464e+002
3.894360e+002, 3.006415e+002
3.899181e+002, 3.004467e+002
3.904002e+002, 3.000251e+002
3.908824e+002, 2.994949e+002
3.913645e+002, 2.991071e+002
3.918466e+002, 2.989360e+002
3.923287e+002, 2.990807e+002
3.928108e+002, 2.998452e+002
3.932929e+002, 3.015045e+002
3.937751e+002, 3.032159e+002
3.942572e+002, 3.052769e+002
3.947393e+002, 3.071350e+002
3.952214e+002, 3.080353e+002
3.957035e+002, 3.078908e+002
3.961856e+002, 3.073837e+002
3.966678e+002, 3.072459e+002
3.971499e+002, 3.075216e+002
3.976320e+002, 3.079781e+002
3.981141e+002, 3.090855e+002
3.985962e+002, 3.098928e+002
3.990783e+002, 3.096650e+002
3.995605e+002, 3.087663e+002
4.000426e+002, 3.081559e+002
4.005247e+002, 3.084804e+002
4.010068e+002, 3.094473e+002
4.014889e+002, 3.097255e+002
4.019710e+002, 3.089238e+002
4.024532e+002, 3.078531e+002
4.029353e+002, 3.062339e+002
4.034174e+002, 3.045687e+002
