##NAMES=Maghemite
##RRUFFID=R140712
##IDEAL CHEMISTRY=(Fe^3+^_0.67_[box]_0.33_)Fe^3+^_2_O_4_
##LOCALITY=Katzenbuckel, Eberbach, Odenwald, Baden-WÃ¼rttemberg, Germany
##OWNER=RRUFF
##SOURCE=Rock Currier
##DESCRIPTION=Black aggregate of small to fine grains. Fd3m symmetry
##STATUS=The identification of this mineral has been confirmed only by single crystal X-ray diffraction.
##URL=rruff.info/R140712
8.813672e+001, 2.270692e+002
8.861884e+001, 2.311772e+002
8.910095e+001, 2.345129e+002
8.958307e+001, 2.365308e+002
9.006519e+001, 2.388990e+002
9.054730e+001, 2.437711e+002
9.102942e+001, 2.530079e+002
9.151154e+001, 2.617204e+002
9.199365e+001, 2.636203e+002
9.247577e+001, 2.597412e+002
9.295789e+001, 2.552047e+002
9.344000e+001, 2.535243e+002
9.392212e+001, 2.537673e+002
9.440424e+001, 2.538789e+002
9.488635e+001, 2.540673e+002
9.536847e+001, 2.540411e+002
9.585059e+001, 2.526567e+002
9.633270e+001, 2.497859e+002
9.681482e+001, 2.470289e+002
9.729694e+001, 2.456373e+002
9.777905e+001, 2.455746e+002
9.826117e+001, 2.469617e+002
9.874329e+001, 2.505978e+002
9.922540e+001, 2.559236e+002
9.970752e+001, 2.586767e+002
1.001896e+002, 2.582838e+002
1.006718e+002, 2.565445e+002
1.011539e+002, 2.555645e+002
1.016360e+002, 2.553717e+002
1.021181e+002, 2.557799e+002
1.026002e+002, 2.567746e+002
1.030823e+002, 2.583990e+002
1.035645e+002, 2.602187e+002
1.040466e+002, 2.618880e+002
1.045287e+002, 2.639750e+002
1.050108e+002, 2.676207e+002
1.054929e+002, 2.730908e+002
1.059750e+002, 2.796750e+002
1.064572e+002, 2.875556e+002
1.069393e+002, 3.003880e+002
1.074214e+002, 3.078739e+002
1.079035e+002, 3.079090e+002
1.083856e+002, 3.024199e+002
1.088677e+002, 2.981126e+002
1.093499e+002, 2.951078e+002
1.098320e+002, 2.931454e+002
1.103141e+002, 2.921139e+002
1.107962e+002, 2.922625e+002
1.112783e+002, 2.930297e+002
1.117604e+002, 2.945112e+002
1.122426e+002, 2.966544e+002
1.127247e+002, 2.990119e+002
1.132068e+002, 3.007710e+002
1.136889e+002, 3.031220e+002
1.141710e+002, 3.068734e+002
1.146531e+002, 3.145366e+002
1.151353e+002, 3.213938e+002
1.156174e+002, 3.257632e+002
1.160995e+002, 3.276000e+002
1.165816e+002, 3.294537e+002
1.170637e+002, 3.333602e+002
1.175458e+002, 3.374146e+002
1.180280e+002, 3.395868e+002
1.185101e+002, 3.369794e+002
1.189922e+002, 3.337050e+002
1.194743e+002, 3.322225e+002
1.199564e+002, 3.328013e+002
1.204385e+002, 3.340296e+002
1.209207e+002, 3.341145e+002
1.214028e+002, 3.342921e+002
1.218849e+002, 3.367293e+002
1.223670e+002, 3.456610e+002
1.228491e+002, 3.560191e+002
1.233312e+002, 3.623172e+002
1.238134e+002, 3.635039e+002
1.242955e+002, 3.623600e+002
1.247776e+002, 3.604610e+002
1.252597e+002, 3.581006e+002
1.257418e+002, 3.562584e+002
1.262239e+002, 3.555214e+002
1.267061e+002, 3.557281e+002
1.271882e+002, 3.564890e+002
1.276703e+002, 3.576171e+002
1.281524e+002, 3.595642e+002
1.286345e+002, 3.636773e+002
1.291166e+002, 3.697353e+002
1.295988e+002, 3.754261e+002
1.300809e+002, 3.789477e+002
1.305630e+002, 3.806068e+002
1.310451e+002, 3.817225e+002
1.315272e+002, 3.824134e+002
1.320093e+002, 3.827791e+002
1.324915e+002, 3.829665e+002
1.329736e+002, 3.829413e+002
1.334557e+002, 3.829830e+002
1.339378e+002, 3.832545e+002
1.344199e+002, 3.837536e+002
1.349020e+002, 3.846404e+002
1.353842e+002, 3.859624e+002
1.358663e+002, 3.876834e+002
1.363484e+002, 3.897335e+002
1.368305e+002, 3.920626e+002
1.373126e+002, 3.948519e+002
1.377947e+002, 3.984627e+002
1.382769e+002, 4.031171e+002
1.387590e+002, 4.075935e+002
1.392411e+002, 4.120259e+002
1.397232e+002, 4.164787e+002
1.402053e+002, 4.176768e+002
1.406874e+002, 4.146158e+002
1.411696e+002, 4.096429e+002
1.416517e+002, 4.059013e+002
1.421338e+002, 4.037929e+002
1.426159e+002, 4.020018e+002
1.430980e+002, 4.001072e+002
1.435801e+002, 3.980238e+002
1.440623e+002, 3.963785e+002
1.445444e+002, 3.950511e+002
1.450265e+002, 3.942567e+002
1.455086e+002, 3.944536e+002
1.459907e+002, 3.964013e+002
1.464728e+002, 3.983648e+002
1.469550e+002, 3.999342e+002
1.474371e+002, 4.014746e+002
1.479192e+002, 4.017378e+002
1.484013e+002, 3.999565e+002
1.488834e+002, 3.969894e+002
1.493655e+002, 3.946751e+002
1.498477e+002, 3.930933e+002
1.503298e+002, 3.921127e+002
1.508119e+002, 3.917372e+002
1.512940e+002, 3.925371e+002
1.517761e+002, 3.930898e+002
1.522583e+002, 3.930306e+002
1.527404e+002, 3.926465e+002
1.532225e+002, 3.927587e+002
1.537046e+002, 3.938909e+002
1.541867e+002, 3.952040e+002
1.546688e+002, 3.963559e+002
1.551510e+002, 3.984894e+002
1.556331e+002, 3.990318e+002
1.561152e+002, 3.963896e+002
1.565973e+002, 3.914675e+002
1.570794e+002, 3.878812e+002
1.575615e+002, 3.873611e+002
1.580437e+002, 3.878037e+002
1.585258e+002, 3.879015e+002
1.590079e+002, 3.867366e+002
1.594900e+002, 3.858624e+002
1.599721e+002, 3.859078e+002
1.604542e+002, 3.867177e+002
1.609364e+002, 3.873896e+002
1.614185e+002, 3.870735e+002
1.619006e+002, 3.867367e+002
1.623827e+002, 3.871568e+002
1.628648e+002, 3.901547e+002
1.633469e+002, 3.925522e+002
1.638291e+002, 3.925188e+002
1.643112e+002, 3.902678e+002
1.647933e+002, 3.880542e+002
1.652754e+002, 3.871129e+002
1.657575e+002, 3.867300e+002
1.662396e+002, 3.861558e+002
1.667218e+002, 3.843766e+002
1.672039e+002, 3.828809e+002
1.676860e+002, 3.828746e+002
1.681681e+002, 3.843292e+002
1.686502e+002, 3.858649e+002
1.691323e+002, 3.864299e+002
1.696145e+002, 3.865695e+002
1.700966e+002, 3.870238e+002
1.705787e+002, 3.888549e+002
1.710608e+002, 3.906680e+002
1.715429e+002, 3.910790e+002
1.720250e+002, 3.900133e+002
1.725072e+002, 3.886376e+002
1.729893e+002, 3.876061e+002
1.734714e+002, 3.868958e+002
1.739535e+002, 3.864624e+002
1.744356e+002, 3.865540e+002
1.749177e+002, 3.867949e+002
1.753999e+002, 3.866805e+002
1.758820e+002, 3.861581e+002
1.763641e+002, 3.856064e+002
1.768462e+002, 3.852351e+002
1.773283e+002, 3.850771e+002
1.778104e+002, 3.852237e+002
1.782926e+002, 3.861872e+002
1.787747e+002, 3.873511e+002
1.792568e+002, 3.875146e+002
1.797389e+002, 3.864951e+002
1.802210e+002, 3.852675e+002
1.807031e+002, 3.849821e+002
1.811853e+002, 3.854437e+002
1.816674e+002, 3.859720e+002
1.821495e+002, 3.862732e+002
1.826316e+002, 3.863914e+002
1.831137e+002, 3.864028e+002
1.835958e+002, 3.863032e+002
1.840780e+002, 3.861579e+002
1.845601e+002, 3.859803e+002
1.850422e+002, 3.858026e+002
1.855243e+002, 3.857859e+002
1.860064e+002, 3.863528e+002
1.864885e+002, 3.872203e+002
1.869707e+002, 3.872187e+002
1.874528e+002, 3.861230e+002
1.879349e+002, 3.846122e+002
1.884170e+002, 3.837097e+002
1.888991e+002, 3.833867e+002
1.893812e+002, 3.831484e+002
1.898634e+002, 3.826299e+002
1.903455e+002, 3.819149e+002
1.908276e+002, 3.815856e+002
1.913097e+002, 3.817646e+002
1.917918e+002, 3.821316e+002
1.922739e+002, 3.821349e+002
1.927561e+002, 3.817592e+002
1.932382e+002, 3.812524e+002
1.937203e+002, 3.805783e+002
1.942024e+002, 3.797784e+002
1.946845e+002, 3.794998e+002
1.951666e+002, 3.799117e+002
1.956488e+002, 3.806700e+002
1.961309e+002, 3.811888e+002
1.966130e+002, 3.814837e+002
1.970951e+002, 3.814562e+002
1.975772e+002, 3.809125e+002
1.980593e+002, 3.798457e+002
1.985415e+002, 3.789643e+002
1.990236e+002, 3.782873e+002
1.995057e+002, 3.778579e+002
1.999878e+002, 3.778062e+002
2.004699e+002, 3.781545e+002
2.009520e+002, 3.787734e+002
2.014342e+002, 3.798770e+002
2.019163e+002, 3.815929e+002
2.023984e+002, 3.821876e+002
2.028805e+002, 3.812037e+002
2.033626e+002, 3.793385e+002
2.038447e+002, 3.784538e+002
2.043269e+002, 3.788263e+002
2.048090e+002, 3.791781e+002
2.052911e+002, 3.785552e+002
2.057732e+002, 3.766854e+002
2.062553e+002, 3.757368e+002
2.067374e+002, 3.761200e+002
2.072196e+002, 3.773230e+002
2.077017e+002, 3.779120e+002
2.081838e+002, 3.777095e+002
2.086659e+002, 3.773861e+002
2.091480e+002, 3.773283e+002
2.096301e+002, 3.776046e+002
2.101123e+002, 3.778388e+002
2.105944e+002, 3.780080e+002
2.110765e+002, 3.781271e+002
2.115586e+002, 3.782456e+002
2.120407e+002, 3.783858e+002
2.125228e+002, 3.784764e+002
2.130050e+002, 3.784488e+002
2.134871e+002, 3.782434e+002
2.139692e+002, 3.781387e+002
2.144513e+002, 3.781577e+002
2.149334e+002, 3.782794e+002
2.154155e+002, 3.784598e+002
2.158977e+002, 3.787325e+002
2.163798e+002, 3.789873e+002
2.168619e+002, 3.790934e+002
2.173440e+002, 3.788658e+002
2.178261e+002, 3.791271e+002
2.183082e+002, 3.802661e+002
2.187904e+002, 3.818057e+002
2.192725e+002, 3.821341e+002
2.197546e+002, 3.805837e+002
2.202367e+002, 3.790099e+002
2.207188e+002, 3.785303e+002
2.212009e+002, 3.798799e+002
2.216831e+002, 3.802513e+002
2.221652e+002, 3.790449e+002
2.226473e+002, 3.769616e+002
2.231294e+002, 3.761782e+002
2.236115e+002, 3.773742e+002
2.240936e+002, 3.787504e+002
2.245758e+002, 3.794576e+002
2.250579e+002, 3.792561e+002
2.255400e+002, 3.789841e+002
2.260221e+002, 3.786927e+002
2.265042e+002, 3.783370e+002
2.269863e+002, 3.777209e+002
2.274685e+002, 3.764569e+002
2.279506e+002, 3.755244e+002
2.284327e+002, 3.754664e+002
2.289148e+002, 3.768841e+002
2.293969e+002, 3.777598e+002
2.298790e+002, 3.779165e+002
2.303612e+002, 3.775652e+002
2.308433e+002, 3.771784e+002
2.313254e+002, 3.764714e+002
2.318075e+002, 3.761445e+002
2.322896e+002, 3.766273e+002
2.327717e+002, 3.785459e+002
2.332539e+002, 3.796893e+002
2.337360e+002, 3.797310e+002
2.342181e+002, 3.790892e+002
2.347002e+002, 3.787217e+002
2.351823e+002, 3.788014e+002
2.356644e+002, 3.788879e+002
2.361466e+002, 3.787736e+002
2.366287e+002, 3.782950e+002
2.371108e+002, 3.780709e+002
2.375929e+002, 3.782567e+002
2.380750e+002, 3.786346e+002
2.385571e+002, 3.787402e+002
2.390393e+002, 3.784158e+002
2.395214e+002, 3.780767e+002
2.400035e+002, 3.779158e+002
2.404856e+002, 3.780924e+002
2.409677e+002, 3.779404e+002
2.414498e+002, 3.771906e+002
2.419320e+002, 3.762647e+002
2.424141e+002, 3.759550e+002
2.428962e+002, 3.767048e+002
2.433783e+002, 3.773662e+002
2.438604e+002, 3.775195e+002
2.443425e+002, 3.769933e+002
2.448247e+002, 3.766307e+002
2.453068e+002, 3.765729e+002
2.457889e+002, 3.765959e+002
2.462710e+002, 3.762531e+002
2.467531e+002, 3.750417e+002
2.472352e+002, 3.743377e+002
2.477174e+002, 3.747841e+002
2.481995e+002, 3.767793e+002
2.486816e+002, 3.778164e+002
2.491637e+002, 3.774204e+002
2.496458e+002, 3.764154e+002
2.501279e+002, 3.760283e+002
2.506101e+002, 3.767309e+002
2.510922e+002, 3.771267e+002
2.515743e+002, 3.765875e+002
2.520564e+002, 3.748395e+002
2.525385e+002, 3.743521e+002
2.530206e+002, 3.758839e+002
2.535028e+002, 3.779847e+002
2.539849e+002, 3.787515e+002
2.544670e+002, 3.774482e+002
2.549491e+002, 3.764207e+002
2.554312e+002, 3.763283e+002
2.559133e+002, 3.772393e+002
2.563955e+002, 3.778365e+002
2.568776e+002, 3.779605e+002
2.573597e+002, 3.779492e+002
2.578418e+002, 3.781774e+002
2.583239e+002, 3.787737e+002
2.588061e+002, 3.793097e+002
2.592882e+002, 3.797448e+002
2.597703e+002, 3.800762e+002
2.602524e+002, 3.800923e+002
2.607345e+002, 3.796373e+002
2.612166e+002, 3.790869e+002
2.616988e+002, 3.787706e+002
2.621809e+002, 3.787465e+002
2.626630e+002, 3.788094e+002
2.631451e+002, 3.789220e+002
2.636272e+002, 3.790928e+002
2.641093e+002, 3.794226e+002
2.645915e+002, 3.800493e+002
2.650736e+002, 3.806054e+002
2.655557e+002, 3.807059e+002
2.660378e+002, 3.801175e+002
2.665199e+002, 3.799489e+002
2.670020e+002, 3.805449e+002
2.674842e+002, 3.816851e+002
2.679663e+002, 3.821538e+002
2.684484e+002, 3.817339e+002
2.689305e+002, 3.811382e+002
2.694126e+002, 3.808619e+002
2.698947e+002, 3.809764e+002
2.703769e+002, 3.810547e+002
2.708590e+002, 3.809880e+002
2.713411e+002, 3.808864e+002
2.718232e+002, 3.812243e+002
2.723053e+002, 3.822068e+002
2.727874e+002, 3.829992e+002
2.732696e+002, 3.829563e+002
2.737517e+002, 3.818861e+002
2.742338e+002, 3.812317e+002
2.747159e+002, 3.811095e+002
2.751980e+002, 3.814165e+002
2.756801e+002, 3.820502e+002
2.761623e+002, 3.831309e+002
2.766444e+002, 3.840142e+002
2.771265e+002, 3.842141e+002
2.776086e+002, 3.836548e+002
2.780907e+002, 3.836291e+002
2.785728e+002, 3.843729e+002
2.790550e+002, 3.853363e+002
2.795371e+002, 3.854076e+002
2.800192e+002, 3.844620e+002
2.805013e+002, 3.836404e+002
2.809834e+002, 3.835612e+002
2.814655e+002, 3.841979e+002
2.819477e+002, 3.844411e+002
2.824298e+002, 3.841194e+002
2.829119e+002, 3.838334e+002
2.833940e+002, 3.846725e+002
2.838761e+002, 3.866668e+002
2.843582e+002, 3.882922e+002
2.848404e+002, 3.888376e+002
2.853225e+002, 3.884743e+002
2.858046e+002, 3.882206e+002
2.862867e+002, 3.880762e+002
2.867688e+002, 3.880391e+002
2.872509e+002, 3.882268e+002
2.877331e+002, 3.886097e+002
2.882152e+002, 3.887395e+002
2.886973e+002, 3.883545e+002
2.891794e+002, 3.876514e+002
2.896615e+002, 3.873340e+002
2.901436e+002, 3.874359e+002
2.906258e+002, 3.875545e+002
2.911079e+002, 3.873004e+002
2.915900e+002, 3.867318e+002
2.920721e+002, 3.861282e+002
2.925542e+002, 3.855385e+002
2.930363e+002, 3.849914e+002
2.935185e+002, 3.846015e+002
2.940006e+002, 3.843641e+002
2.944827e+002, 3.840835e+002
2.949648e+002, 3.834144e+002
2.954469e+002, 3.825470e+002
2.959290e+002, 3.821734e+002
2.964112e+002, 3.826226e+002
2.968933e+002, 3.832520e+002
2.973754e+002, 3.828121e+002
2.978575e+002, 3.814926e+002
2.983396e+002, 3.804742e+002
2.988217e+002, 3.809863e+002
2.993039e+002, 3.822831e+002
2.997860e+002, 3.827937e+002
3.002681e+002, 3.821620e+002
3.007502e+002, 3.812034e+002
3.012323e+002, 3.809019e+002
3.017144e+002, 3.810894e+002
3.021966e+002, 3.812054e+002
3.026787e+002, 3.808232e+002
3.031608e+002, 3.802393e+002
3.036429e+002, 3.798920e+002
3.041250e+002, 3.798509e+002
3.046071e+002, 3.798062e+002
3.050893e+002, 3.794410e+002
3.055714e+002, 3.788634e+002
3.060535e+002, 3.783152e+002
3.065356e+002, 3.778022e+002
3.070177e+002, 3.774217e+002
3.074998e+002, 3.774122e+002
3.079820e+002, 3.777799e+002
3.084641e+002, 3.779824e+002
3.089462e+002, 3.774633e+002
3.094283e+002, 3.765880e+002
3.099104e+002, 3.758565e+002
3.103925e+002, 3.753697e+002
3.108747e+002, 3.751704e+002
3.113568e+002, 3.755644e+002
3.118389e+002, 3.764426e+002
3.123210e+002, 3.769729e+002
3.128031e+002, 3.763291e+002
3.132852e+002, 3.752921e+002
3.137674e+002, 3.746070e+002
3.142495e+002, 3.746034e+002
3.147316e+002, 3.748337e+002
3.152137e+002, 3.752888e+002
3.156958e+002, 3.758502e+002
3.161779e+002, 3.761230e+002
3.166601e+002, 3.756189e+002
3.171422e+002, 3.749726e+002
3.176243e+002, 3.746087e+002
3.181064e+002, 3.747082e+002
3.185885e+002, 3.748681e+002
3.190706e+002, 3.750441e+002
3.195528e+002, 3.751792e+002
3.200349e+002, 3.751656e+002
3.205170e+002, 3.747039e+002
3.209991e+002, 3.743051e+002
3.214812e+002, 3.742902e+002
3.219633e+002, 3.748815e+002
3.224455e+002, 3.751225e+002
3.229276e+002, 3.743789e+002
3.234097e+002, 3.733284e+002
3.238918e+002, 3.728038e+002
3.243739e+002, 3.735992e+002
3.248560e+002, 3.742839e+002
3.253382e+002, 3.744513e+002
3.258203e+002, 3.740346e+002
3.263024e+002, 3.736572e+002
3.267845e+002, 3.732057e+002
3.272666e+002, 3.728983e+002
3.277487e+002, 3.729141e+002
3.282309e+002, 3.738287e+002
3.287130e+002, 3.743869e+002
3.291951e+002, 3.742490e+002
3.296772e+002, 3.735152e+002
3.301593e+002, 3.732233e+002
3.306414e+002, 3.739818e+002
3.311236e+002, 3.746026e+002
3.316057e+002, 3.743661e+002
3.320878e+002, 3.723635e+002
3.325699e+002, 3.711392e+002
3.330520e+002, 3.710445e+002
3.335341e+002, 3.717257e+002
3.340163e+002, 3.722188e+002
3.344984e+002, 3.723970e+002
3.349805e+002, 3.725882e+002
3.354626e+002, 3.730080e+002
3.359447e+002, 3.738486e+002
3.364268e+002, 3.741359e+002
3.369090e+002, 3.736896e+002
3.373911e+002, 3.728842e+002
3.378732e+002, 3.723456e+002
3.383553e+002, 3.721837e+002
3.388374e+002, 3.719009e+002
3.393195e+002, 3.711678e+002
3.398017e+002, 3.700324e+002
3.402838e+002, 3.698564e+002
3.407659e+002, 3.709683e+002
3.412480e+002, 3.722142e+002
3.417301e+002, 3.722157e+002
3.422122e+002, 3.708681e+002
3.426944e+002, 3.698319e+002
3.431765e+002, 3.695192e+002
3.436586e+002, 3.697564e+002
3.441407e+002, 3.700231e+002
3.446228e+002, 3.703183e+002
3.451049e+002, 3.706208e+002
3.455871e+002, 3.709984e+002
3.460692e+002, 3.714088e+002
3.465513e+002, 3.715081e+002
3.470334e+002, 3.711929e+002
3.475155e+002, 3.706732e+002
3.479977e+002, 3.702275e+002
3.484798e+002, 3.698605e+002
3.489619e+002, 3.696501e+002
3.494440e+002, 3.697582e+002
3.499261e+002, 3.700417e+002
3.504082e+002, 3.701766e+002
3.508904e+002, 3.701367e+002
3.513725e+002, 3.699972e+002
3.518546e+002, 3.697314e+002
3.523367e+002, 3.694165e+002
3.528188e+002, 3.692510e+002
3.533009e+002, 3.694732e+002
3.537831e+002, 3.698099e+002
3.542652e+002, 3.700057e+002
3.547473e+002, 3.700544e+002
3.552294e+002, 3.698586e+002
3.557115e+002, 3.691923e+002
3.561936e+002, 3.682872e+002
3.566758e+002, 3.674177e+002
3.571579e+002, 3.664413e+002
3.576400e+002, 3.657950e+002
3.581221e+002, 3.660204e+002
3.586042e+002, 3.669030e+002
3.590863e+002, 3.676718e+002
3.595685e+002, 3.680522e+002
3.600506e+002, 3.681078e+002
3.605327e+002, 3.678262e+002
3.610148e+002, 3.670743e+002
3.614969e+002, 3.663510e+002
3.619790e+002, 3.656396e+002
3.624612e+002, 3.651254e+002
3.629433e+002, 3.651059e+002
3.634254e+002, 3.664295e+002
3.639075e+002, 3.675987e+002
3.643896e+002, 3.679188e+002
3.648717e+002, 3.672334e+002
3.653539e+002, 3.665396e+002
3.658360e+002, 3.654419e+002
3.663181e+002, 3.647036e+002
3.668002e+002, 3.649904e+002
3.672823e+002, 3.684735e+002
3.677644e+002, 3.706737e+002
3.682466e+002, 3.702462e+002
3.687287e+002, 3.674569e+002
3.692108e+002, 3.656107e+002
3.696929e+002, 3.652564e+002
3.701750e+002, 3.653498e+002
3.706571e+002, 3.653671e+002
3.711393e+002, 3.651196e+002
3.716214e+002, 3.651631e+002
3.721035e+002, 3.657894e+002
3.725856e+002, 3.666203e+002
3.730677e+002, 3.666967e+002
3.735498e+002, 3.655123e+002
3.740320e+002, 3.645547e+002
3.745141e+002, 3.645142e+002
3.749962e+002, 3.655598e+002
3.754783e+002, 3.659804e+002
3.759604e+002, 3.655983e+002
3.764425e+002, 3.648788e+002
3.769247e+002, 3.642941e+002
3.774068e+002, 3.638219e+002
3.778889e+002, 3.636819e+002
3.783710e+002, 3.640758e+002
3.788531e+002, 3.648149e+002
3.793352e+002, 3.651216e+002
3.798174e+002, 3.649741e+002
3.802995e+002, 3.645251e+002
3.807816e+002, 3.636104e+002
3.812637e+002, 3.623439e+002
3.817458e+002, 3.618559e+002
3.822279e+002, 3.624983e+002
3.827101e+002, 3.635563e+002
3.831922e+002, 3.637687e+002
3.836743e+002, 3.632632e+002
3.841564e+002, 3.629069e+002
3.846385e+002, 3.633168e+002
3.851206e+002, 3.641736e+002
3.856028e+002, 3.649085e+002
3.860849e+002, 3.655090e+002
3.865670e+002, 3.658474e+002
3.870491e+002, 3.656214e+002
3.875312e+002, 3.650599e+002
3.880133e+002, 3.646137e+002
3.884955e+002, 3.644273e+002
3.889776e+002, 3.644411e+002
3.894597e+002, 3.647086e+002
3.899418e+002, 3.651817e+002
3.904239e+002, 3.655762e+002
3.909060e+002, 3.657953e+002
3.913882e+002, 3.658206e+002
3.918703e+002, 3.655379e+002
3.923524e+002, 3.645913e+002
3.928345e+002, 3.640438e+002
3.933166e+002, 3.649023e+002
3.937987e+002, 3.665017e+002
3.942809e+002, 3.674955e+002
3.947630e+002, 3.668291e+002
3.952451e+002, 3.659980e+002
3.957272e+002, 3.656673e+002
3.962093e+002, 3.659751e+002
3.966914e+002, 3.662505e+002
3.971736e+002, 3.664158e+002
3.976557e+002, 3.664607e+002
3.981378e+002, 3.663742e+002
3.986199e+002, 3.657849e+002
3.991020e+002, 3.654832e+002
3.995841e+002, 3.659244e+002
4.000663e+002, 3.668978e+002
4.005484e+002, 3.669343e+002
4.010305e+002, 3.650504e+002
4.015126e+002, 3.632930e+002
4.019947e+002, 3.627578e+002
4.024768e+002, 3.642573e+002
