##NAMES=Montgomeryite
##RRUFFID=R140664
##IDEAL CHEMISTRY=Ca_4_MgAl_4_(PO_4_)_6_(OH)_4_&#183;12H_2_O
##LOCALITY=Foote Mineral Company mine, Kings Mountain, North Carolina, USA
##OWNER=RRUFF
##SOURCE=Rock Currier
##DESCRIPTION=Radial aggregates of colorless, bladed to platy crystals
##STATUS=The identification of this mineral has been confirmed only by single crystal X-ray diffraction.
##URL=rruff.info/R140664
8.806445e+001, 1.326820e+003
8.854657e+001, 1.302295e+003
8.902869e+001, 1.293837e+003
8.951080e+001, 1.309096e+003
8.999292e+001, 1.336941e+003
9.047504e+001, 1.367665e+003
9.095715e+001, 1.399659e+003
9.143927e+001, 1.430926e+003
9.192139e+001, 1.459070e+003
9.240350e+001, 1.484398e+003
9.288562e+001, 1.507148e+003
9.336774e+001, 1.516263e+003
9.384985e+001, 1.502849e+003
9.433197e+001, 1.471594e+003
9.481409e+001, 1.444473e+003
9.529620e+001, 1.415998e+003
9.577832e+001, 1.390271e+003
9.626044e+001, 1.367996e+003
9.674255e+001, 1.348648e+003
9.722467e+001, 1.331374e+003
9.770679e+001, 1.315818e+003
9.818890e+001, 1.302135e+003
9.867102e+001, 1.290254e+003
9.915314e+001, 1.279498e+003
9.963525e+001, 1.269176e+003
1.001174e+002, 1.258894e+003
1.005995e+002, 1.248809e+003
1.010816e+002, 1.239631e+003
1.015637e+002, 1.230672e+003
1.020458e+002, 1.223193e+003
1.025280e+002, 1.217787e+003
1.030101e+002, 1.213578e+003
1.034922e+002, 1.209176e+003
1.039743e+002, 1.203545e+003
1.044564e+002, 1.196615e+003
1.049385e+002, 1.191042e+003
1.054207e+002, 1.187924e+003
1.059028e+002, 1.184702e+003
1.063849e+002, 1.180036e+003
1.068670e+002, 1.173859e+003
1.073491e+002, 1.166799e+003
1.078312e+002, 1.159124e+003
1.083134e+002, 1.150866e+003
1.087955e+002, 1.143135e+003
1.092776e+002, 1.135944e+003
1.097597e+002, 1.129371e+003
1.102418e+002, 1.123520e+003
1.107239e+002, 1.118370e+003
1.112061e+002, 1.114056e+003
1.116882e+002, 1.110628e+003
1.121703e+002, 1.107975e+003
1.126524e+002, 1.106084e+003
1.131345e+002, 1.105549e+003
1.136166e+002, 1.106229e+003
1.140988e+002, 1.105713e+003
1.145809e+002, 1.102884e+003
1.150630e+002, 1.099336e+003
1.155451e+002, 1.095708e+003
1.160272e+002, 1.092102e+003
1.165093e+002, 1.088630e+003
1.169915e+002, 1.085359e+003
1.174736e+002, 1.082159e+003
1.179557e+002, 1.079538e+003
1.184378e+002, 1.077911e+003
1.189199e+002, 1.076508e+003
1.194020e+002, 1.074520e+003
1.198842e+002, 1.071744e+003
1.203663e+002, 1.068891e+003
1.208484e+002, 1.067598e+003
1.213305e+002, 1.070647e+003
1.218126e+002, 1.072148e+003
1.222947e+002, 1.070891e+003
1.227769e+002, 1.068237e+003
1.232590e+002, 1.065982e+003
1.237411e+002, 1.065084e+003
1.242232e+002, 1.065144e+003
1.247053e+002, 1.064209e+003
1.251874e+002, 1.061111e+003
1.256696e+002, 1.058500e+003
1.261517e+002, 1.057762e+003
1.266338e+002, 1.058505e+003
1.271159e+002, 1.059029e+003
1.275980e+002, 1.058176e+003
1.280801e+002, 1.056299e+003
1.285623e+002, 1.054834e+003
1.290444e+002, 1.054240e+003
1.295265e+002, 1.053793e+003
1.300086e+002, 1.052714e+003
1.304907e+002, 1.050898e+003
1.309728e+002, 1.048995e+003
1.314550e+002, 1.047016e+003
1.319371e+002, 1.045258e+003
1.324192e+002, 1.044326e+003
1.329013e+002, 1.045068e+003
1.333834e+002, 1.046712e+003
1.338655e+002, 1.046846e+003
1.343477e+002, 1.044425e+003
1.348298e+002, 1.041936e+003
1.353119e+002, 1.040337e+003
1.357940e+002, 1.039440e+003
1.362761e+002, 1.038867e+003
1.367582e+002, 1.038319e+003
1.372404e+002, 1.037791e+003
1.377225e+002, 1.037726e+003
1.382046e+002, 1.039365e+003
1.386867e+002, 1.040389e+003
1.391688e+002, 1.039774e+003
1.396509e+002, 1.037744e+003
1.401331e+002, 1.035253e+003
1.406152e+002, 1.033244e+003
1.410973e+002, 1.031911e+003
1.415794e+002, 1.030464e+003
1.420615e+002, 1.028734e+003
1.425436e+002, 1.027041e+003
1.430258e+002, 1.025487e+003
1.435079e+002, 1.024127e+003
1.439900e+002, 1.023072e+003
1.444721e+002, 1.022545e+003
1.449542e+002, 1.022927e+003
1.454363e+002, 1.022814e+003
1.459185e+002, 1.021715e+003
1.464006e+002, 1.020252e+003
1.468827e+002, 1.019078e+003
1.473648e+002, 1.018361e+003
1.478469e+002, 1.018033e+003
1.483290e+002, 1.018168e+003
1.488112e+002, 1.018818e+003
1.492933e+002, 1.019281e+003
1.497754e+002, 1.019266e+003
1.502575e+002, 1.018860e+003
1.507396e+002, 1.018210e+003
1.512217e+002, 1.017007e+003
1.517039e+002, 1.016044e+003
1.521860e+002, 1.016469e+003
1.526681e+002, 1.018488e+003
1.531502e+002, 1.020311e+003
1.536323e+002, 1.020479e+003
1.541144e+002, 1.018950e+003
1.545966e+002, 1.017118e+003
1.550787e+002, 1.015214e+003
1.555608e+002, 1.013236e+003
1.560429e+002, 1.011118e+003
1.565250e+002, 1.008829e+003
1.570071e+002, 1.006605e+003
1.574893e+002, 1.004779e+003
1.579714e+002, 1.003446e+003
1.584535e+002, 1.002279e+003
1.589356e+002, 1.001403e+003
1.594177e+002, 1.000541e+003
1.598998e+002, 9.995001e+002
1.603820e+002, 9.982102e+002
1.608641e+002, 9.966915e+002
1.613462e+002, 9.949708e+002
1.618283e+002, 9.927100e+002
1.623104e+002, 9.907275e+002
1.627925e+002, 9.892548e+002
1.632747e+002, 9.880239e+002
1.637568e+002, 9.867802e+002
1.642389e+002, 9.854108e+002
1.647210e+002, 9.838953e+002
1.652031e+002, 9.821360e+002
1.656852e+002, 9.794565e+002
1.661674e+002, 9.773047e+002
1.666495e+002, 9.764396e+002
1.671316e+002, 9.762281e+002
1.676137e+002, 9.754882e+002
1.680958e+002, 9.734237e+002
1.685779e+002, 9.703636e+002
1.690601e+002, 9.683837e+002
1.695422e+002, 9.679875e+002
1.700243e+002, 9.678917e+002
1.705064e+002, 9.676185e+002
1.709885e+002, 9.672134e+002
1.714706e+002, 9.669132e+002
1.719528e+002, 9.669082e+002
1.724349e+002, 9.671204e+002
1.729170e+002, 9.671752e+002
1.733991e+002, 9.670098e+002
1.738812e+002, 9.667340e+002
1.743633e+002, 9.663676e+002
1.748455e+002, 9.659046e+002
1.753276e+002, 9.655344e+002
1.758097e+002, 9.655336e+002
1.762918e+002, 9.656717e+002
1.767739e+002, 9.655114e+002
1.772560e+002, 9.647123e+002
1.777382e+002, 9.637579e+002
1.782203e+002, 9.635054e+002
1.787024e+002, 9.642831e+002
1.791845e+002, 9.646771e+002
1.796666e+002, 9.635397e+002
1.801487e+002, 9.616871e+002
1.806309e+002, 9.601111e+002
1.811130e+002, 9.592126e+002
1.815951e+002, 9.588646e+002
1.820772e+002, 9.587512e+002
1.825593e+002, 9.590091e+002
1.830414e+002, 9.592888e+002
1.835236e+002, 9.594713e+002
1.840057e+002, 9.595880e+002
1.844878e+002, 9.597232e+002
1.849699e+002, 9.599905e+002
1.854520e+002, 9.602976e+002
1.859341e+002, 9.600363e+002
1.864163e+002, 9.584494e+002
1.868984e+002, 9.571052e+002
1.873805e+002, 9.563739e+002
1.878626e+002, 9.561273e+002
1.883447e+002, 9.561426e+002
1.888268e+002, 9.562986e+002
1.893090e+002, 9.565872e+002
1.897911e+002, 9.566750e+002
1.902732e+002, 9.564980e+002
1.907553e+002, 9.561974e+002
1.912374e+002, 9.557170e+002
1.917195e+002, 9.551375e+002
1.922017e+002, 9.546182e+002
1.926838e+002, 9.542957e+002
1.931659e+002, 9.541816e+002
1.936480e+002, 9.539365e+002
1.941301e+002, 9.534117e+002
1.946122e+002, 9.529300e+002
1.950944e+002, 9.527186e+002
1.955765e+002, 9.527032e+002
1.960586e+002, 9.526107e+002
1.965407e+002, 9.522356e+002
1.970228e+002, 9.515471e+002
1.975049e+002, 9.506275e+002
1.979871e+002, 9.490970e+002
1.984692e+002, 9.476525e+002
1.989513e+002, 9.466849e+002
1.994334e+002, 9.462133e+002
1.999155e+002, 9.461364e+002
2.003976e+002, 9.465813e+002
2.008798e+002, 9.474525e+002
2.013619e+002, 9.476895e+002
2.018440e+002, 9.467889e+002
2.023261e+002, 9.455341e+002
2.028082e+002, 9.446535e+002
2.032903e+002, 9.442079e+002
2.037725e+002, 9.437361e+002
2.042546e+002, 9.427893e+002
2.047367e+002, 9.415368e+002
2.052188e+002, 9.404603e+002
2.057009e+002, 9.395146e+002
2.061830e+002, 9.388506e+002
2.066652e+002, 9.388389e+002
2.071473e+002, 9.396727e+002
2.076294e+002, 9.404234e+002
2.081115e+002, 9.403699e+002
2.085936e+002, 9.398251e+002
2.090757e+002, 9.392079e+002
2.095579e+002, 9.386634e+002
2.100400e+002, 9.381401e+002
2.105221e+002, 9.375233e+002
2.110042e+002, 9.367811e+002
2.114863e+002, 9.360036e+002
2.119685e+002, 9.350613e+002
2.124506e+002, 9.341354e+002
2.129327e+002, 9.335367e+002
2.134148e+002, 9.335117e+002
2.138969e+002, 9.338610e+002
2.143790e+002, 9.339223e+002
2.148612e+002, 9.333617e+002
2.153433e+002, 9.330825e+002
2.158254e+002, 9.336513e+002
2.163075e+002, 9.345955e+002
2.167896e+002, 9.352530e+002
2.172717e+002, 9.352139e+002
2.177539e+002, 9.346395e+002
2.182360e+002, 9.342650e+002
2.187181e+002, 9.343795e+002
2.192002e+002, 9.343124e+002
2.196823e+002, 9.336266e+002
2.201644e+002, 9.327309e+002
2.206466e+002, 9.322414e+002
2.211287e+002, 9.325712e+002
2.216108e+002, 9.335388e+002
2.220929e+002, 9.341078e+002
2.225750e+002, 9.339265e+002
2.230571e+002, 9.336883e+002
2.235393e+002, 9.335500e+002
2.240214e+002, 9.334200e+002
2.245035e+002, 9.331302e+002
2.249856e+002, 9.325693e+002
2.254677e+002, 9.317963e+002
2.259498e+002, 9.311877e+002
2.264320e+002, 9.306603e+002
2.269141e+002, 9.304052e+002
2.273962e+002, 9.304222e+002
2.278783e+002, 9.307405e+002
2.283604e+002, 9.315255e+002
2.288425e+002, 9.329341e+002
2.293247e+002, 9.347469e+002
2.298068e+002, 9.356793e+002
2.302889e+002, 9.352569e+002
2.307710e+002, 9.345726e+002
2.312531e+002, 9.334454e+002
2.317352e+002, 9.322350e+002
2.322174e+002, 9.315974e+002
2.326995e+002, 9.319372e+002
2.331816e+002, 9.330010e+002
2.336637e+002, 9.336769e+002
2.341458e+002, 9.339672e+002
2.346279e+002, 9.339540e+002
2.351101e+002, 9.334186e+002
2.355922e+002, 9.325979e+002
2.360743e+002, 9.319646e+002
2.365564e+002, 9.317653e+002
2.370385e+002, 9.318790e+002
2.375206e+002, 9.319598e+002
2.380028e+002, 9.323096e+002
2.384849e+002, 9.322167e+002
2.389670e+002, 9.309168e+002
2.394491e+002, 9.289885e+002
2.399312e+002, 9.278248e+002
2.404133e+002, 9.282014e+002
2.408955e+002, 9.294173e+002
2.413776e+002, 9.299464e+002
2.418597e+002, 9.297938e+002
2.423418e+002, 9.291639e+002
2.428239e+002, 9.276886e+002
2.433060e+002, 9.257507e+002
2.437882e+002, 9.244617e+002
2.442703e+002, 9.243809e+002
2.447524e+002, 9.249074e+002
2.452345e+002, 9.251200e+002
2.457166e+002, 9.250508e+002
2.461987e+002, 9.246342e+002
2.466809e+002, 9.235714e+002
2.471630e+002, 9.220829e+002
2.476451e+002, 9.208937e+002
2.481272e+002, 9.202255e+002
2.486093e+002, 9.199339e+002
2.490914e+002, 9.199626e+002
2.495736e+002, 9.203319e+002
2.500557e+002, 9.204222e+002
2.505378e+002, 9.195181e+002
2.510199e+002, 9.179484e+002
2.515020e+002, 9.171637e+002
2.519841e+002, 9.178955e+002
2.524663e+002, 9.188476e+002
2.529484e+002, 9.188558e+002
2.534305e+002, 9.179978e+002
2.539126e+002, 9.169064e+002
2.543947e+002, 9.157514e+002
2.548768e+002, 9.146106e+002
2.553590e+002, 9.139530e+002
2.558411e+002, 9.142104e+002
2.563232e+002, 9.144241e+002
2.568053e+002, 9.137360e+002
2.572874e+002, 9.123978e+002
2.577695e+002, 9.113120e+002
2.582516e+002, 9.113138e+002
2.587338e+002, 9.121414e+002
2.592159e+002, 9.122822e+002
2.596980e+002, 9.110719e+002
2.601801e+002, 9.100985e+002
2.606622e+002, 9.104351e+002
2.611443e+002, 9.116196e+002
2.616265e+002, 9.126190e+002
2.621086e+002, 9.127145e+002
2.625907e+002, 9.121121e+002
2.630728e+002, 9.117932e+002
2.635549e+002, 9.120646e+002
2.640370e+002, 9.121310e+002
2.645192e+002, 9.115043e+002
2.650013e+002, 9.105099e+002
2.654834e+002, 9.097059e+002
2.659655e+002, 9.094799e+002
2.664476e+002, 9.096049e+002
2.669297e+002, 9.091956e+002
2.674119e+002, 9.077103e+002
2.678940e+002, 9.065888e+002
2.683761e+002, 9.065681e+002
2.688582e+002, 9.070149e+002
2.693403e+002, 9.070599e+002
2.698224e+002, 9.061955e+002
2.703046e+002, 9.049108e+002
2.707867e+002, 9.046246e+002
2.712688e+002, 9.060290e+002
2.717509e+002, 9.072426e+002
2.722330e+002, 9.082706e+002
2.727151e+002, 9.087785e+002
2.731973e+002, 9.082134e+002
2.736794e+002, 9.063194e+002
2.741615e+002, 9.038511e+002
2.746436e+002, 9.024073e+002
2.751257e+002, 9.024565e+002
2.756078e+002, 9.026716e+002
2.760900e+002, 9.029508e+002
2.765721e+002, 9.032356e+002
2.770542e+002, 9.034808e+002
2.775363e+002, 9.036709e+002
2.780184e+002, 9.038118e+002
2.785005e+002, 9.039127e+002
2.789827e+002, 9.039716e+002
2.794648e+002, 9.039870e+002
2.799469e+002, 9.038453e+002
2.804290e+002, 9.037473e+002
2.809111e+002, 9.039328e+002
2.813932e+002, 9.043926e+002
2.818754e+002, 9.048192e+002
2.823575e+002, 9.047656e+002
2.828396e+002, 9.039953e+002
2.833217e+002, 9.034348e+002
2.838038e+002, 9.032338e+002
2.842859e+002, 9.030936e+002
2.847681e+002, 9.028912e+002
2.852502e+002, 9.026010e+002
2.857323e+002, 9.022032e+002
2.862144e+002, 9.015612e+002
2.866965e+002, 9.004555e+002
2.871786e+002, 9.004304e+002
2.876608e+002, 9.026851e+002
2.881429e+002, 9.047980e+002
2.886250e+002, 9.058069e+002
2.891071e+002, 9.058059e+002
2.895892e+002, 9.053617e+002
2.900714e+002, 9.049004e+002
2.905535e+002, 9.044254e+002
2.910356e+002, 9.039274e+002
2.915177e+002, 9.032584e+002
2.919998e+002, 9.027296e+002
2.924819e+002, 9.025866e+002
2.929641e+002, 9.026393e+002
2.934462e+002, 9.025245e+002
2.939283e+002, 9.019935e+002
2.944104e+002, 9.011161e+002
2.948925e+002, 9.003506e+002
2.953746e+002, 8.995573e+002
2.958568e+002, 8.990467e+002
2.963389e+002, 8.990597e+002
2.968210e+002, 8.993268e+002
2.973031e+002, 8.996264e+002
2.977852e+002, 8.998654e+002
2.982673e+002, 8.998129e+002
2.987495e+002, 8.987786e+002
2.992316e+002, 8.953139e+002
2.997137e+002, 8.926193e+002
3.001958e+002, 8.911581e+002
3.006779e+002, 8.903397e+002
3.011600e+002, 8.896270e+002
3.016422e+002, 8.888249e+002
3.021243e+002, 8.879883e+002
3.026064e+002, 8.872206e+002
3.030885e+002, 8.865180e+002
3.035706e+002, 8.859047e+002
3.040527e+002, 8.852982e+002
3.045349e+002, 8.848261e+002
3.050170e+002, 8.846955e+002
3.054991e+002, 8.848885e+002
3.059812e+002, 8.851030e+002
3.064633e+002, 8.849676e+002
3.069454e+002, 8.844021e+002
3.074276e+002, 8.837422e+002
3.079097e+002, 8.828513e+002
3.083918e+002, 8.820118e+002
3.088739e+002, 8.813411e+002
3.093560e+002, 8.808646e+002
3.098381e+002, 8.806307e+002
3.103203e+002, 8.807515e+002
3.108024e+002, 8.812928e+002
3.112845e+002, 8.811425e+002
3.117666e+002, 8.793743e+002
3.122487e+002, 8.779664e+002
3.127308e+002, 8.779550e+002
3.132130e+002, 8.788452e+002
3.136951e+002, 8.795207e+002
3.141772e+002, 8.792620e+002
3.146593e+002, 8.781781e+002
3.151414e+002, 8.770340e+002
3.156235e+002, 8.753913e+002
3.161057e+002, 8.741774e+002
3.165878e+002, 8.736726e+002
3.170699e+002, 8.736447e+002
3.175520e+002, 8.739254e+002
3.180341e+002, 8.744441e+002
3.185162e+002, 8.749271e+002
3.189984e+002, 8.746478e+002
3.194805e+002, 8.722575e+002
3.199626e+002, 8.708848e+002
3.204447e+002, 8.714933e+002
3.209268e+002, 8.726180e+002
3.214089e+002, 8.728743e+002
3.218911e+002, 8.719155e+002
3.223732e+002, 8.704270e+002
3.228553e+002, 8.694091e+002
3.233374e+002, 8.691497e+002
3.238195e+002, 8.686915e+002
3.243016e+002, 8.675651e+002
3.247838e+002, 8.666346e+002
3.252659e+002, 8.666657e+002
3.257480e+002, 8.675517e+002
3.262301e+002, 8.684738e+002
3.267122e+002, 8.686118e+002
3.271943e+002, 8.678517e+002
3.276765e+002, 8.672088e+002
3.281586e+002, 8.666576e+002
3.286407e+002, 8.662194e+002
3.291228e+002, 8.660646e+002
3.296049e+002, 8.660268e+002
3.300870e+002, 8.656901e+002
3.305692e+002, 8.647125e+002
3.310513e+002, 8.632500e+002
3.315334e+002, 8.625282e+002
3.320155e+002, 8.636989e+002
3.324976e+002, 8.643376e+002
3.329797e+002, 8.636318e+002
3.334619e+002, 8.623521e+002
3.339440e+002, 8.615502e+002
3.344261e+002, 8.617007e+002
3.349082e+002, 8.623842e+002
3.353904e+002, 8.625767e+002
3.358725e+002, 8.617814e+002
3.363546e+002, 8.612773e+002
3.368367e+002, 8.614440e+002
3.373188e+002, 8.616966e+002
3.378009e+002, 8.615528e+002
3.382831e+002, 8.609181e+002
3.387652e+002, 8.600319e+002
3.392473e+002, 8.592247e+002
3.397294e+002, 8.585848e+002
3.402115e+002, 8.577243e+002
3.406936e+002, 8.563024e+002
3.411758e+002, 8.549816e+002
3.416579e+002, 8.540538e+002
3.421400e+002, 8.535190e+002
3.426221e+002, 8.532694e+002
3.431042e+002, 8.532475e+002
3.435863e+002, 8.534496e+002
3.440685e+002, 8.535635e+002
3.445506e+002, 8.529883e+002
3.450327e+002, 8.529543e+002
3.455148e+002, 8.543151e+002
3.459969e+002, 8.562960e+002
3.464790e+002, 8.576965e+002
3.469612e+002, 8.578602e+002
3.474433e+002, 8.570593e+002
3.479254e+002, 8.561148e+002
3.484075e+002, 8.548493e+002
3.488896e+002, 8.537463e+002
3.493717e+002, 8.530442e+002
3.498539e+002, 8.524271e+002
3.503360e+002, 8.514386e+002
3.508181e+002, 8.499943e+002
3.513002e+002, 8.486740e+002
3.517823e+002, 8.485165e+002
3.522644e+002, 8.500731e+002
3.527466e+002, 8.509910e+002
3.532287e+002, 8.506181e+002
3.537108e+002, 8.500243e+002
3.541929e+002, 8.497642e+002
3.546750e+002, 8.498290e+002
3.551571e+002, 8.498620e+002
3.556393e+002, 8.494641e+002
3.561214e+002, 8.486410e+002
3.566035e+002, 8.482464e+002
3.570856e+002, 8.488439e+002
3.575677e+002, 8.492056e+002
3.580498e+002, 8.485080e+002
3.585320e+002, 8.473431e+002
3.590141e+002, 8.468768e+002
3.594962e+002, 8.480098e+002
3.599783e+002, 8.498339e+002
3.604604e+002, 8.496369e+002
3.609425e+002, 8.462023e+002
3.614247e+002, 8.435849e+002
3.619068e+002, 8.437209e+002
3.623889e+002, 8.447473e+002
3.628710e+002, 8.448549e+002
3.633531e+002, 8.435186e+002
3.638352e+002, 8.420670e+002
3.643174e+002, 8.424463e+002
3.647995e+002, 8.449315e+002
3.652816e+002, 8.463893e+002
3.657637e+002, 8.455621e+002
3.662458e+002, 8.441304e+002
3.667279e+002, 8.428556e+002
3.672101e+002, 8.418718e+002
3.676922e+002, 8.415101e+002
3.681743e+002, 8.427604e+002
3.686564e+002, 8.450211e+002
3.691385e+002, 8.452097e+002
3.696206e+002, 8.420299e+002
3.701028e+002, 8.390831e+002
3.705849e+002, 8.391200e+002
3.710670e+002, 8.407870e+002
3.715491e+002, 8.417050e+002
3.720312e+002, 8.408375e+002
3.725133e+002, 8.390260e+002
3.729955e+002, 8.371466e+002
3.734776e+002, 8.351169e+002
3.739597e+002, 8.339114e+002
3.744418e+002, 8.345277e+002
3.749239e+002, 8.358765e+002
3.754060e+002, 8.365132e+002
3.758882e+002, 8.361600e+002
3.763703e+002, 8.357860e+002
3.768524e+002, 8.361379e+002
3.773345e+002, 8.370521e+002
3.778166e+002, 8.378847e+002
3.782987e+002, 8.385364e+002
3.787809e+002, 8.389796e+002
3.792630e+002, 8.391801e+002
3.797451e+002, 8.391622e+002
3.802272e+002, 8.389406e+002
3.807093e+002, 8.381429e+002
3.811914e+002, 8.373189e+002
3.816736e+002, 8.372914e+002
3.821557e+002, 8.381444e+002
3.826378e+002, 8.392383e+002
3.831199e+002, 8.403127e+002
3.836020e+002, 8.412388e+002
3.840841e+002, 8.416215e+002
3.845663e+002, 8.410148e+002
3.850484e+002, 8.403051e+002
3.855305e+002, 8.398542e+002
3.860126e+002, 8.396924e+002
3.864947e+002, 8.400205e+002
3.869768e+002, 8.410569e+002
3.874590e+002, 8.423469e+002
3.879411e+002, 8.428268e+002
3.884232e+002, 8.422191e+002
3.889053e+002, 8.418063e+002
3.893874e+002, 8.420161e+002
3.898695e+002, 8.424680e+002
3.903517e+002, 8.427900e+002
3.908338e+002, 8.429028e+002
3.913159e+002, 8.427955e+002
3.917980e+002, 8.424536e+002
3.922801e+002, 8.418557e+002
3.927622e+002, 8.410709e+002
3.932444e+002, 8.398809e+002
3.937265e+002, 8.387299e+002
3.942086e+002, 8.380166e+002
3.946907e+002, 8.375456e+002
3.951728e+002, 8.367271e+002
3.956549e+002, 8.351833e+002
3.961371e+002, 8.331448e+002
3.966192e+002, 8.315875e+002
3.971013e+002, 8.309615e+002
3.975834e+002, 8.302733e+002
3.980655e+002, 8.292914e+002
3.985476e+002, 8.282998e+002
3.990298e+002, 8.277105e+002
3.995119e+002, 8.275831e+002
3.999940e+002, 8.274690e+002
4.004761e+002, 8.267646e+002
4.009582e+002, 8.253661e+002
4.014403e+002, 8.237147e+002
4.019225e+002, 8.214016e+002
